#  E (eV)   dosup(E)     dosdw(E)   Int dos(E) EFermi =    8.005 eV
  -4.000  0.3650E+01  0.3405E+01  0.7055E-01
  -3.990  0.3636E+01  0.3383E+01  0.1407E+00
  -3.980  0.3620E+01  0.3361E+01  0.2106E+00
  -3.970  0.3605E+01  0.3339E+01  0.2800E+00
  -3.960  0.3589E+01  0.3316E+01  0.3490E+00
  -3.950  0.3572E+01  0.3293E+01  0.4177E+00
  -3.940  0.3555E+01  0.3269E+01  0.4859E+00
  -3.930  0.3538E+01  0.3245E+01  0.5538E+00
  -3.920  0.3520E+01  0.3220E+01  0.6212E+00
  -3.910  0.3502E+01  0.3196E+01  0.6881E+00
  -3.900  0.3483E+01  0.3170E+01  0.7547E+00
  -3.890  0.3464E+01  0.3145E+01  0.8208E+00
  -3.880  0.3444E+01  0.3119E+01  0.8864E+00
  -3.870  0.3424E+01  0.3093E+01  0.9516E+00
  -3.860  0.3404E+01  0.3066E+01  0.1016E+01
  -3.850  0.3383E+01  0.3040E+01  0.1081E+01
  -3.840  0.3362E+01  0.3012E+01  0.1144E+01
  -3.830  0.3340E+01  0.2985E+01  0.1208E+01
  -3.820  0.3318E+01  0.2957E+01  0.1270E+01
  -3.810  0.3296E+01  0.2929E+01  0.1333E+01
  -3.800  0.3273E+01  0.2901E+01  0.1394E+01
  -3.790  0.3250E+01  0.2872E+01  0.1455E+01
  -3.780  0.3226E+01  0.2843E+01  0.1516E+01
  -3.770  0.3202E+01  0.2814E+01  0.1576E+01
  -3.760  0.3178E+01  0.2785E+01  0.1636E+01
  -3.750  0.3154E+01  0.2755E+01  0.1695E+01
  -3.740  0.3129E+01  0.2725E+01  0.1754E+01
  -3.730  0.3103E+01  0.2695E+01  0.1812E+01
  -3.720  0.3078E+01  0.2665E+01  0.1869E+01
  -3.710  0.3052E+01  0.2634E+01  0.1926E+01
  -3.700  0.3025E+01  0.2604E+01  0.1982E+01
  -3.690  0.2999E+01  0.2573E+01  0.2038E+01
  -3.680  0.2972E+01  0.2542E+01  0.2093E+01
  -3.670  0.2944E+01  0.2510E+01  0.2148E+01
  -3.660  0.2917E+01  0.2479E+01  0.2202E+01
  -3.650  0.2889E+01  0.2447E+01  0.2255E+01
  -3.640  0.2861E+01  0.2416E+01  0.2308E+01
  -3.630  0.2833E+01  0.2384E+01  0.2360E+01
  -3.620  0.2804E+01  0.2352E+01  0.2411E+01
  -3.610  0.2775E+01  0.2319E+01  0.2462E+01
  -3.600  0.2746E+01  0.2287E+01  0.2513E+01
  -3.590  0.2716E+01  0.2255E+01  0.2562E+01
  -3.580  0.2687E+01  0.2222E+01  0.2611E+01
  -3.570  0.2657E+01  0.2190E+01  0.2660E+01
  -3.560  0.2627E+01  0.2157E+01  0.2708E+01
  -3.550  0.2597E+01  0.2124E+01  0.2755E+01
  -3.540  0.2566E+01  0.2092E+01  0.2802E+01
  -3.530  0.2536E+01  0.2059E+01  0.2847E+01
  -3.520  0.2505E+01  0.2026E+01  0.2893E+01
  -3.510  0.2474E+01  0.1993E+01  0.2937E+01
  -3.500  0.2443E+01  0.1960E+01  0.2981E+01
  -3.490  0.2411E+01  0.1927E+01  0.3025E+01
  -3.480  0.2380E+01  0.1894E+01  0.3068E+01
  -3.470  0.2348E+01  0.1861E+01  0.3110E+01
  -3.460  0.2316E+01  0.1828E+01  0.3151E+01
  -3.450  0.2285E+01  0.1795E+01  0.3192E+01
  -3.440  0.2253E+01  0.1762E+01  0.3232E+01
  -3.430  0.2220E+01  0.1729E+01  0.3272E+01
  -3.420  0.2188E+01  0.1696E+01  0.3310E+01
  -3.410  0.2156E+01  0.1664E+01  0.3349E+01
  -3.400  0.2124E+01  0.1631E+01  0.3386E+01
  -3.390  0.2091E+01  0.1598E+01  0.3423E+01
  -3.380  0.2059E+01  0.1566E+01  0.3459E+01
  -3.370  0.2026E+01  0.1533E+01  0.3495E+01
  -3.360  0.1994E+01  0.1501E+01  0.3530E+01
  -3.350  0.1961E+01  0.1468E+01  0.3564E+01
  -3.340  0.1929E+01  0.1436E+01  0.3598E+01
  -3.330  0.1896E+01  0.1404E+01  0.3631E+01
  -3.320  0.1863E+01  0.1372E+01  0.3663E+01
  -3.310  0.1831E+01  0.1340E+01  0.3695E+01
  -3.300  0.1798E+01  0.1308E+01  0.3726E+01
  -3.290  0.1765E+01  0.1277E+01  0.3756E+01
  -3.280  0.1733E+01  0.1245E+01  0.3786E+01
  -3.270  0.1700E+01  0.1214E+01  0.3815E+01
  -3.260  0.1668E+01  0.1183E+01  0.3844E+01
  -3.250  0.1635E+01  0.1152E+01  0.3872E+01
  -3.240  0.1603E+01  0.1122E+01  0.3899E+01
  -3.230  0.1571E+01  0.1091E+01  0.3925E+01
  -3.220  0.1538E+01  0.1061E+01  0.3951E+01
  -3.210  0.1506E+01  0.1031E+01  0.3977E+01
  -3.200  0.1474E+01  0.1001E+01  0.4002E+01
  -3.190  0.1442E+01  0.9709E+00  0.4026E+01
  -3.180  0.1410E+01  0.9414E+00  0.4049E+01
  -3.170  0.1379E+01  0.9121E+00  0.4072E+01
  -3.160  0.1347E+01  0.8831E+00  0.4094E+01
  -3.150  0.1315E+01  0.8543E+00  0.4116E+01
  -3.140  0.1284E+01  0.8258E+00  0.4137E+01
  -3.130  0.1253E+01  0.7975E+00  0.4158E+01
  -3.120  0.1222E+01  0.7694E+00  0.4178E+01
  -3.110  0.1191E+01  0.7417E+00  0.4197E+01
  -3.100  0.1160E+01  0.7141E+00  0.4216E+01
  -3.090  0.1130E+01  0.6869E+00  0.4234E+01
  -3.080  0.1099E+01  0.6599E+00  0.4251E+01
  -3.070  0.1069E+01  0.6333E+00  0.4268E+01
  -3.060  0.1039E+01  0.6068E+00  0.4285E+01
  -3.050  0.1009E+01  0.5807E+00  0.4301E+01
  -3.040  0.9798E+00  0.5549E+00  0.4316E+01
  -3.030  0.9505E+00  0.5294E+00  0.4331E+01
  -3.020  0.9213E+00  0.5042E+00  0.4345E+01
  -3.010  0.8924E+00  0.4792E+00  0.4359E+01
  -3.000  0.8638E+00  0.4546E+00  0.4372E+01
  -2.990  0.8353E+00  0.4303E+00  0.4385E+01
  -2.980  0.8072E+00  0.4064E+00  0.4397E+01
  -2.970  0.7792E+00  0.3827E+00  0.4409E+01
  -2.960  0.7515E+00  0.3593E+00  0.4420E+01
  -2.950  0.7241E+00  0.3363E+00  0.4430E+01
  -2.940  0.6969E+00  0.3136E+00  0.4440E+01
  -2.930  0.6700E+00  0.2913E+00  0.4450E+01
  -2.920  0.6434E+00  0.2692E+00  0.4459E+01
  -2.910  0.6171E+00  0.2475E+00  0.4468E+01
  -2.900  0.5910E+00  0.2261E+00  0.4476E+01
  -2.890  0.5653E+00  0.2051E+00  0.4484E+01
  -2.880  0.5398E+00  0.1844E+00  0.4491E+01
  -2.870  0.5146E+00  0.1641E+00  0.4498E+01
  -2.860  0.4897E+00  0.1441E+00  0.4504E+01
  -2.850  0.4651E+00  0.1244E+00  0.4510E+01
  -2.840  0.4409E+00  0.1051E+00  0.4515E+01
  -2.830  0.4169E+00  0.8608E-01  0.4520E+01
  -2.820  0.3932E+00  0.6744E-01  0.4525E+01
  -2.810  0.3699E+00  0.4915E-01  0.4529E+01
  -2.800  0.3469E+00  0.3121E-01  0.4533E+01
  -2.790  0.3242E+00  0.1361E-01  0.4536E+01
  -2.780  0.3018E+00 -0.3635E-02  0.4539E+01
  -2.770  0.2798E+00 -0.2054E-01  0.4542E+01
  -2.760  0.2581E+00 -0.3709E-01  0.4544E+01
  -2.750  0.2367E+00 -0.5330E-01  0.4546E+01
  -2.740  0.2156E+00 -0.6916E-01  0.4547E+01
  -2.730  0.1949E+00 -0.8467E-01  0.4549E+01
  -2.720  0.1745E+00 -0.9984E-01  0.4549E+01
  -2.710  0.1545E+00 -0.1147E+00  0.4550E+01
  -2.700  0.1347E+00 -0.1291E+00  0.4550E+01
  -2.690  0.1154E+00 -0.1433E+00  0.4549E+01
  -2.680  0.9635E-01 -0.1571E+00  0.4549E+01
  -2.670  0.7766E-01 -0.1705E+00  0.4548E+01
  -2.660  0.5932E-01 -0.1836E+00  0.4547E+01
  -2.650  0.4132E-01 -0.1964E+00  0.4545E+01
  -2.640  0.2366E-01 -0.2089E+00  0.4543E+01
  -2.630  0.6348E-02 -0.2210E+00  0.4541E+01
  -2.620 -0.1062E-01 -0.2327E+00  0.4539E+01
  -2.610 -0.2724E-01 -0.2442E+00  0.4536E+01
  -2.600 -0.4352E-01 -0.2553E+00  0.4533E+01
  -2.590 -0.5946E-01 -0.2661E+00  0.4530E+01
  -2.580 -0.7505E-01 -0.2766E+00  0.4526E+01
  -2.570 -0.9030E-01 -0.2867E+00  0.4522E+01
  -2.560 -0.1052E+00 -0.2965E+00  0.4518E+01
  -2.550 -0.1198E+00 -0.3060E+00  0.4514E+01
  -2.540 -0.1340E+00 -0.3152E+00  0.4510E+01
  -2.530 -0.1479E+00 -0.3241E+00  0.4505E+01
  -2.520 -0.1614E+00 -0.3327E+00  0.4500E+01
  -2.510 -0.1746E+00 -0.3409E+00  0.4495E+01
  -2.500 -0.1875E+00 -0.3489E+00  0.4490E+01
  -2.490 -0.2001E+00 -0.3566E+00  0.4484E+01
  -2.480 -0.2123E+00 -0.3639E+00  0.4478E+01
  -2.470 -0.2241E+00 -0.3710E+00  0.4472E+01
  -2.460 -0.2357E+00 -0.3778E+00  0.4466E+01
  -2.450 -0.2469E+00 -0.3843E+00  0.4460E+01
  -2.440 -0.2578E+00 -0.3905E+00  0.4453E+01
  -2.430 -0.2684E+00 -0.3964E+00  0.4447E+01
  -2.420 -0.2786E+00 -0.4021E+00  0.4440E+01
  -2.410 -0.2885E+00 -0.4075E+00  0.4433E+01
  -2.400 -0.2982E+00 -0.4126E+00  0.4426E+01
  -2.390 -0.3075E+00 -0.4174E+00  0.4419E+01
  -2.380 -0.3165E+00 -0.4220E+00  0.4411E+01
  -2.370 -0.3251E+00 -0.4263E+00  0.4404E+01
  -2.360 -0.3335E+00 -0.4304E+00  0.4396E+01
  -2.350 -0.3416E+00 -0.4342E+00  0.4388E+01
  -2.340 -0.3494E+00 -0.4378E+00  0.4380E+01
  -2.330 -0.3568E+00 -0.4411E+00  0.4372E+01
  -2.320 -0.3640E+00 -0.4442E+00  0.4364E+01
  -2.310 -0.3709E+00 -0.4471E+00  0.4356E+01
  -2.300 -0.3775E+00 -0.4497E+00  0.4348E+01
  -2.290 -0.3838E+00 -0.4521E+00  0.4339E+01
  -2.280 -0.3899E+00 -0.4543E+00  0.4331E+01
  -2.270 -0.3957E+00 -0.4562E+00  0.4323E+01
  -2.260 -0.4011E+00 -0.4580E+00  0.4314E+01
  -2.250 -0.4064E+00 -0.4595E+00  0.4305E+01
  -2.240 -0.4113E+00 -0.4608E+00  0.4297E+01
  -2.230 -0.4160E+00 -0.4619E+00  0.4288E+01
  -2.220 -0.4204E+00 -0.4629E+00  0.4279E+01
  -2.210 -0.4246E+00 -0.4636E+00  0.4270E+01
  -2.200 -0.4286E+00 -0.4641E+00  0.4261E+01
  -2.190 -0.4322E+00 -0.4645E+00  0.4252E+01
  -2.180 -0.4357E+00 -0.4646E+00  0.4243E+01
  -2.170 -0.4389E+00 -0.4646E+00  0.4234E+01
  -2.160 -0.4418E+00 -0.4644E+00  0.4225E+01
  -2.150 -0.4445E+00 -0.4641E+00  0.4216E+01
  -2.140 -0.4470E+00 -0.4636E+00  0.4207E+01
  -2.130 -0.4493E+00 -0.4629E+00  0.4198E+01
  -2.120 -0.4514E+00 -0.4620E+00  0.4189E+01
  -2.110 -0.4532E+00 -0.4610E+00  0.4179E+01
  -2.100 -0.4548E+00 -0.4599E+00  0.4170E+01
  -2.090 -0.4562E+00 -0.4586E+00  0.4161E+01
  -2.080 -0.4574E+00 -0.4572E+00  0.4152E+01
  -2.070 -0.4584E+00 -0.4556E+00  0.4143E+01
  -2.060 -0.4593E+00 -0.4539E+00  0.4134E+01
  -2.050 -0.4599E+00 -0.4520E+00  0.4125E+01
  -2.040 -0.4603E+00 -0.4501E+00  0.4116E+01
  -2.030 -0.4605E+00 -0.4480E+00  0.4106E+01
  -2.020 -0.4606E+00 -0.4458E+00  0.4097E+01
  -2.010 -0.4605E+00 -0.4435E+00  0.4088E+01
  -2.000 -0.4602E+00 -0.4410E+00  0.4079E+01
  -1.990 -0.4598E+00 -0.4385E+00  0.4070E+01
  -1.980 -0.4592E+00 -0.4358E+00  0.4061E+01
  -1.970 -0.4584E+00 -0.4331E+00  0.4052E+01
  -1.960 -0.4574E+00 -0.4303E+00  0.4044E+01
  -1.950 -0.4564E+00 -0.4273E+00  0.4035E+01
  -1.940 -0.4551E+00 -0.4243E+00  0.4026E+01
  -1.930 -0.4537E+00 -0.4212E+00  0.4017E+01
  -1.920 -0.4522E+00 -0.4180E+00  0.4009E+01
  -1.910 -0.4506E+00 -0.4147E+00  0.4000E+01
  -1.900 -0.4488E+00 -0.4113E+00  0.3991E+01
  -1.890 -0.4469E+00 -0.4079E+00  0.3983E+01
  -1.880 -0.4448E+00 -0.4044E+00  0.3974E+01
  -1.870 -0.4426E+00 -0.4009E+00  0.3966E+01
  -1.860 -0.4404E+00 -0.3972E+00  0.3957E+01
  -1.850 -0.4380E+00 -0.3935E+00  0.3949E+01
  -1.840 -0.4354E+00 -0.3898E+00  0.3941E+01
  -1.830 -0.4328E+00 -0.3860E+00  0.3933E+01
  -1.820 -0.4301E+00 -0.3821E+00  0.3925E+01
  -1.810 -0.4273E+00 -0.3782E+00  0.3916E+01
  -1.800 -0.4244E+00 -0.3743E+00  0.3909E+01
  -1.790 -0.4213E+00 -0.3703E+00  0.3901E+01
  -1.780 -0.4182E+00 -0.3662E+00  0.3893E+01
  -1.770 -0.4150E+00 -0.3621E+00  0.3885E+01
  -1.760 -0.4118E+00 -0.3580E+00  0.3877E+01
  -1.750 -0.4084E+00 -0.3539E+00  0.3870E+01
  -1.740 -0.4050E+00 -0.3497E+00  0.3862E+01
  -1.730 -0.4015E+00 -0.3454E+00  0.3855E+01
  -1.720 -0.3979E+00 -0.3412E+00  0.3847E+01
  -1.710 -0.3942E+00 -0.3369E+00  0.3840E+01
  -1.700 -0.3905E+00 -0.3326E+00  0.3833E+01
  -1.690 -0.3867E+00 -0.3283E+00  0.3826E+01
  -1.680 -0.3829E+00 -0.3240E+00  0.3818E+01
  -1.670 -0.3790E+00 -0.3196E+00  0.3812E+01
  -1.660 -0.3750E+00 -0.3153E+00  0.3805E+01
  -1.650 -0.3710E+00 -0.3109E+00  0.3798E+01
  -1.640 -0.3670E+00 -0.3065E+00  0.3791E+01
  -1.630 -0.3629E+00 -0.3021E+00  0.3784E+01
  -1.620 -0.3587E+00 -0.2977E+00  0.3778E+01
  -1.610 -0.3546E+00 -0.2933E+00  0.3771E+01
  -1.600 -0.3503E+00 -0.2889E+00  0.3765E+01
  -1.590 -0.3461E+00 -0.2844E+00  0.3759E+01
  -1.580 -0.3418E+00 -0.2800E+00  0.3752E+01
  -1.570 -0.3374E+00 -0.2756E+00  0.3746E+01
  -1.560 -0.3331E+00 -0.2711E+00  0.3740E+01
  -1.550 -0.3287E+00 -0.2667E+00  0.3734E+01
  -1.540 -0.3243E+00 -0.2623E+00  0.3728E+01
  -1.530 -0.3198E+00 -0.2579E+00  0.3723E+01
  -1.520 -0.3153E+00 -0.2534E+00  0.3717E+01
  -1.510 -0.3108E+00 -0.2490E+00  0.3711E+01
  -1.500 -0.3063E+00 -0.2446E+00  0.3706E+01
  -1.490 -0.3018E+00 -0.2402E+00  0.3700E+01
  -1.480 -0.2973E+00 -0.2358E+00  0.3695E+01
  -1.470 -0.2927E+00 -0.2314E+00  0.3690E+01
  -1.460 -0.2881E+00 -0.2271E+00  0.3685E+01
  -1.450 -0.2835E+00 -0.2227E+00  0.3680E+01
  -1.440 -0.2789E+00 -0.2184E+00  0.3675E+01
  -1.430 -0.2743E+00 -0.2140E+00  0.3670E+01
  -1.420 -0.2697E+00 -0.2097E+00  0.3665E+01
  -1.410 -0.2651E+00 -0.2054E+00  0.3660E+01
  -1.400 -0.2605E+00 -0.2011E+00  0.3656E+01
  -1.390 -0.2558E+00 -0.1968E+00  0.3651E+01
  -1.380 -0.2512E+00 -0.1925E+00  0.3647E+01
  -1.370 -0.2465E+00 -0.1882E+00  0.3642E+01
  -1.360 -0.2419E+00 -0.1840E+00  0.3638E+01
  -1.350 -0.2372E+00 -0.1797E+00  0.3634E+01
  -1.340 -0.2326E+00 -0.1755E+00  0.3630E+01
  -1.330 -0.2279E+00 -0.1713E+00  0.3626E+01
  -1.320 -0.2233E+00 -0.1671E+00  0.3622E+01
  -1.310 -0.2186E+00 -0.1629E+00  0.3618E+01
  -1.300 -0.2139E+00 -0.1587E+00  0.3614E+01
  -1.290 -0.2093E+00 -0.1545E+00  0.3611E+01
  -1.280 -0.2046E+00 -0.1504E+00  0.3607E+01
  -1.270 -0.2000E+00 -0.1462E+00  0.3604E+01
  -1.260 -0.1953E+00 -0.1421E+00  0.3600E+01
  -1.250 -0.1907E+00 -0.1380E+00  0.3597E+01
  -1.240 -0.1860E+00 -0.1339E+00  0.3594E+01
  -1.230 -0.1814E+00 -0.1298E+00  0.3591E+01
  -1.220 -0.1767E+00 -0.1257E+00  0.3588E+01
  -1.210 -0.1721E+00 -0.1216E+00  0.3585E+01
  -1.200 -0.1674E+00 -0.1175E+00  0.3582E+01
  -1.190 -0.1628E+00 -0.1134E+00  0.3579E+01
  -1.180 -0.1581E+00 -0.1094E+00  0.3577E+01
  -1.170 -0.1535E+00 -0.1053E+00  0.3574E+01
  -1.160 -0.1488E+00 -0.1013E+00  0.3571E+01
  -1.150 -0.1442E+00 -0.9722E-01  0.3569E+01
  -1.140 -0.1395E+00 -0.9317E-01  0.3567E+01
  -1.130 -0.1349E+00 -0.8912E-01  0.3565E+01
  -1.120 -0.1302E+00 -0.8507E-01  0.3562E+01
  -1.110 -0.1256E+00 -0.8102E-01  0.3560E+01
  -1.100 -0.1209E+00 -0.7697E-01  0.3558E+01
  -1.090 -0.1162E+00 -0.7292E-01  0.3556E+01
  -1.080 -0.1116E+00 -0.6886E-01  0.3555E+01
  -1.070 -0.1069E+00 -0.6479E-01  0.3553E+01
  -1.060 -0.1022E+00 -0.6072E-01  0.3551E+01
  -1.050 -0.9748E-01 -0.5664E-01  0.3550E+01
  -1.040 -0.9276E-01 -0.5255E-01  0.3548E+01
  -1.030 -0.8804E-01 -0.4844E-01  0.3547E+01
  -1.020 -0.8330E-01 -0.4433E-01  0.3546E+01
  -1.010 -0.7855E-01 -0.4020E-01  0.3544E+01
  -1.000 -0.7379E-01 -0.3605E-01  0.3543E+01
  -0.990 -0.6900E-01 -0.3188E-01  0.3542E+01
  -0.980 -0.6420E-01 -0.2770E-01  0.3541E+01
  -0.970 -0.5938E-01 -0.2349E-01  0.3541E+01
  -0.960 -0.5454E-01 -0.1926E-01  0.3540E+01
  -0.950 -0.4968E-01 -0.1500E-01  0.3539E+01
  -0.940 -0.4479E-01 -0.1072E-01  0.3539E+01
  -0.930 -0.3987E-01 -0.6412E-02  0.3538E+01
  -0.920 -0.3493E-01 -0.2071E-02  0.3538E+01
  -0.910 -0.2996E-01  0.2303E-02  0.3538E+01
  -0.900 -0.2495E-01  0.6711E-02  0.3537E+01
  -0.890 -0.1992E-01  0.1116E-01  0.3537E+01
  -0.880 -0.1485E-01  0.1564E-01  0.3537E+01
  -0.870 -0.9738E-02  0.2016E-01  0.3537E+01
  -0.860 -0.4590E-02  0.2473E-01  0.3538E+01
  -0.850  0.5989E-03  0.2934E-01  0.3538E+01
  -0.840  0.5831E-02  0.3400E-01  0.3538E+01
  -0.830  0.1111E-01  0.3871E-01  0.3539E+01
  -0.820  0.1643E-01  0.4347E-01  0.3539E+01
  -0.810  0.2181E-01  0.4829E-01  0.3540E+01
  -0.800  0.2723E-01  0.5316E-01  0.3541E+01
  -0.790  0.3271E-01  0.5809E-01  0.3542E+01
  -0.780  0.3825E-01  0.6308E-01  0.3543E+01
  -0.770  0.4384E-01  0.6814E-01  0.3544E+01
  -0.760  0.4950E-01  0.7326E-01  0.3545E+01
  -0.750  0.5522E-01  0.7845E-01  0.3546E+01
  -0.740  0.6101E-01  0.8371E-01  0.3548E+01
  -0.730  0.6686E-01  0.8905E-01  0.3549E+01
  -0.720  0.7279E-01  0.9446E-01  0.3551E+01
  -0.710  0.7879E-01  0.9995E-01  0.3553E+01
  -0.700  0.8486E-01  0.1055E+00  0.3555E+01
  -0.690  0.9102E-01  0.1112E+00  0.3557E+01
  -0.680  0.9725E-01  0.1169E+00  0.3559E+01
  -0.670  0.1036E+00  0.1228E+00  0.3561E+01
  -0.660  0.1100E+00  0.1287E+00  0.3564E+01
  -0.650  0.1165E+00  0.1347E+00  0.3566E+01
  -0.640  0.1231E+00  0.1408E+00  0.3569E+01
  -0.630  0.1298E+00  0.1471E+00  0.3572E+01
  -0.620  0.1365E+00  0.1534E+00  0.3574E+01
  -0.610  0.1434E+00  0.1598E+00  0.3578E+01
  -0.600  0.1504E+00  0.1664E+00  0.3581E+01
  -0.590  0.1575E+00  0.1730E+00  0.3584E+01
  -0.580  0.1647E+00  0.1798E+00  0.3587E+01
  -0.570  0.1721E+00  0.1867E+00  0.3591E+01
  -0.560  0.1795E+00  0.1937E+00  0.3595E+01
  -0.550  0.1871E+00  0.2008E+00  0.3599E+01
  -0.540  0.1948E+00  0.2081E+00  0.3603E+01
  -0.530  0.2026E+00  0.2155E+00  0.3607E+01
  -0.520  0.2105E+00  0.2230E+00  0.3611E+01
  -0.510  0.2186E+00  0.2307E+00  0.3616E+01
  -0.500  0.2268E+00  0.2385E+00  0.3620E+01
  -0.490  0.2351E+00  0.2465E+00  0.3625E+01
  -0.480  0.2436E+00  0.2546E+00  0.3630E+01
  -0.470  0.2522E+00  0.2628E+00  0.3635E+01
  -0.460  0.2610E+00  0.2712E+00  0.3641E+01
  -0.450  0.2700E+00  0.2798E+00  0.3646E+01
  -0.440  0.2791E+00  0.2885E+00  0.3652E+01
  -0.430  0.2883E+00  0.2974E+00  0.3658E+01
  -0.420  0.2977E+00  0.3064E+00  0.3664E+01
  -0.410  0.3073E+00  0.3157E+00  0.3670E+01
  -0.400  0.3170E+00  0.3251E+00  0.3676E+01
  -0.390  0.3269E+00  0.3346E+00  0.3683E+01
  -0.380  0.3370E+00  0.3444E+00  0.3690E+01
  -0.370  0.3473E+00  0.3543E+00  0.3697E+01
  -0.360  0.3578E+00  0.3644E+00  0.3704E+01
  -0.350  0.3684E+00  0.3747E+00  0.3711E+01
  -0.340  0.3792E+00  0.3853E+00  0.3719E+01
  -0.330  0.3902E+00  0.3959E+00  0.3727E+01
  -0.320  0.4015E+00  0.4068E+00  0.3735E+01
  -0.310  0.4129E+00  0.4179E+00  0.3743E+01
  -0.300  0.4245E+00  0.4293E+00  0.3752E+01
  -0.290  0.4363E+00  0.4408E+00  0.3761E+01
  -0.280  0.4483E+00  0.4525E+00  0.3770E+01
  -0.270  0.4606E+00  0.4645E+00  0.3779E+01
  -0.260  0.4730E+00  0.4766E+00  0.3788E+01
  -0.250  0.4857E+00  0.4890E+00  0.3798E+01
  -0.240  0.4986E+00  0.5016E+00  0.3808E+01
  -0.230  0.5117E+00  0.5145E+00  0.3818E+01
  -0.220  0.5251E+00  0.5275E+00  0.3829E+01
  -0.210  0.5387E+00  0.5409E+00  0.3840E+01
  -0.200  0.5525E+00  0.5544E+00  0.3851E+01
  -0.190  0.5666E+00  0.5682E+00  0.3862E+01
  -0.180  0.5809E+00  0.5822E+00  0.3874E+01
  -0.170  0.5955E+00  0.5965E+00  0.3886E+01
  -0.160  0.6103E+00  0.6111E+00  0.3898E+01
  -0.150  0.6253E+00  0.6258E+00  0.3910E+01
  -0.140  0.6406E+00  0.6409E+00  0.3923E+01
  -0.130  0.6562E+00  0.6562E+00  0.3936E+01
  -0.120  0.6720E+00  0.6718E+00  0.3950E+01
  -0.110  0.6881E+00  0.6876E+00  0.3964E+01
  -0.100  0.7045E+00  0.7037E+00  0.3978E+01
  -0.090  0.7211E+00  0.7201E+00  0.3992E+01
  -0.080  0.7380E+00  0.7368E+00  0.4007E+01
  -0.070  0.7552E+00  0.7537E+00  0.4022E+01
  -0.060  0.7727E+00  0.7709E+00  0.4037E+01
  -0.050  0.7904E+00  0.7884E+00  0.4053E+01
  -0.040  0.8084E+00  0.8062E+00  0.4069E+01
  -0.030  0.8268E+00  0.8243E+00  0.4086E+01
  -0.020  0.8454E+00  0.8426E+00  0.4103E+01
  -0.010  0.8643E+00  0.8613E+00  0.4120E+01
   0.000  0.8835E+00  0.8802E+00  0.4138E+01
   0.010  0.9030E+00  0.8995E+00  0.4156E+01
   0.020  0.9227E+00  0.9190E+00  0.4174E+01
   0.030  0.9428E+00  0.9389E+00  0.4193E+01
   0.040  0.9632E+00  0.9591E+00  0.4212E+01
   0.050  0.9839E+00  0.9795E+00  0.4232E+01
   0.060  0.1005E+01  0.1000E+01  0.4252E+01
   0.070  0.1026E+01  0.1021E+01  0.4272E+01
   0.080  0.1048E+01  0.1043E+01  0.4293E+01
   0.090  0.1070E+01  0.1064E+01  0.4314E+01
   0.100  0.1092E+01  0.1087E+01  0.4336E+01
   0.110  0.1115E+01  0.1109E+01  0.4358E+01
   0.120  0.1138E+01  0.1132E+01  0.4381E+01
   0.130  0.1161E+01  0.1155E+01  0.4404E+01
   0.140  0.1184E+01  0.1178E+01  0.4428E+01
   0.150  0.1208E+01  0.1201E+01  0.4452E+01
   0.160  0.1232E+01  0.1225E+01  0.4477E+01
   0.170  0.1257E+01  0.1250E+01  0.4502E+01
   0.180  0.1282E+01  0.1274E+01  0.4527E+01
   0.190  0.1307E+01  0.1299E+01  0.4553E+01
   0.200  0.1332E+01  0.1324E+01  0.4580E+01
   0.210  0.1358E+01  0.1350E+01  0.4607E+01
   0.220  0.1384E+01  0.1376E+01  0.4635E+01
   0.230  0.1411E+01  0.1402E+01  0.4663E+01
   0.240  0.1438E+01  0.1429E+01  0.4691E+01
   0.250  0.1465E+01  0.1456E+01  0.4721E+01
   0.260  0.1492E+01  0.1483E+01  0.4750E+01
   0.270  0.1520E+01  0.1511E+01  0.4781E+01
   0.280  0.1548E+01  0.1538E+01  0.4811E+01
   0.290  0.1577E+01  0.1567E+01  0.4843E+01
   0.300  0.1606E+01  0.1595E+01  0.4875E+01
   0.310  0.1635E+01  0.1624E+01  0.4908E+01
   0.320  0.1664E+01  0.1653E+01  0.4941E+01
   0.330  0.1694E+01  0.1683E+01  0.4974E+01
   0.340  0.1724E+01  0.1713E+01  0.5009E+01
   0.350  0.1755E+01  0.1743E+01  0.5044E+01
   0.360  0.1785E+01  0.1773E+01  0.5079E+01
   0.370  0.1817E+01  0.1804E+01  0.5116E+01
   0.380  0.1848E+01  0.1835E+01  0.5152E+01
   0.390  0.1880E+01  0.1867E+01  0.5190E+01
   0.400  0.1912E+01  0.1899E+01  0.5228E+01
   0.410  0.1944E+01  0.1931E+01  0.5267E+01
   0.420  0.1977E+01  0.1963E+01  0.5306E+01
   0.430  0.2010E+01  0.1996E+01  0.5346E+01
   0.440  0.2043E+01  0.2029E+01  0.5387E+01
   0.450  0.2077E+01  0.2062E+01  0.5428E+01
   0.460  0.2111E+01  0.2096E+01  0.5470E+01
   0.470  0.2145E+01  0.2130E+01  0.5513E+01
   0.480  0.2180E+01  0.2164E+01  0.5557E+01
   0.490  0.2214E+01  0.2199E+01  0.5601E+01
   0.500  0.2250E+01  0.2233E+01  0.5646E+01
   0.510  0.2285E+01  0.2268E+01  0.5691E+01
   0.520  0.2321E+01  0.2304E+01  0.5737E+01
   0.530  0.2357E+01  0.2339E+01  0.5784E+01
   0.540  0.2393E+01  0.2375E+01  0.5832E+01
   0.550  0.2429E+01  0.2412E+01  0.5880E+01
   0.560  0.2466E+01  0.2448E+01  0.5929E+01
   0.570  0.2503E+01  0.2485E+01  0.5979E+01
   0.580  0.2541E+01  0.2522E+01  0.6030E+01
   0.590  0.2578E+01  0.2559E+01  0.6081E+01
   0.600  0.2616E+01  0.2596E+01  0.6133E+01
   0.610  0.2654E+01  0.2634E+01  0.6186E+01
   0.620  0.2692E+01  0.2672E+01  0.6240E+01
   0.630  0.2731E+01  0.2710E+01  0.6294E+01
   0.640  0.2770E+01  0.2749E+01  0.6350E+01
   0.650  0.2809E+01  0.2787E+01  0.6406E+01
   0.660  0.2848E+01  0.2826E+01  0.6462E+01
   0.670  0.2887E+01  0.2865E+01  0.6520E+01
   0.680  0.2927E+01  0.2904E+01  0.6578E+01
   0.690  0.2967E+01  0.2944E+01  0.6637E+01
   0.700  0.3007E+01  0.2983E+01  0.6697E+01
   0.710  0.3047E+01  0.3023E+01  0.6758E+01
   0.720  0.3087E+01  0.3063E+01  0.6819E+01
   0.730  0.3128E+01  0.3103E+01  0.6882E+01
   0.740  0.3169E+01  0.3143E+01  0.6945E+01
   0.750  0.3209E+01  0.3184E+01  0.7009E+01
   0.760  0.3250E+01  0.3224E+01  0.7073E+01
   0.770  0.3292E+01  0.3265E+01  0.7139E+01
   0.780  0.3333E+01  0.3306E+01  0.7205E+01
   0.790  0.3374E+01  0.3347E+01  0.7273E+01
   0.800  0.3416E+01  0.3388E+01  0.7341E+01
   0.810  0.3457E+01  0.3429E+01  0.7410E+01
   0.820  0.3499E+01  0.3470E+01  0.7479E+01
   0.830  0.3541E+01  0.3512E+01  0.7550E+01
   0.840  0.3583E+01  0.3553E+01  0.7621E+01
   0.850  0.3625E+01  0.3594E+01  0.7693E+01
   0.860  0.3667E+01  0.3636E+01  0.7766E+01
   0.870  0.3709E+01  0.3677E+01  0.7840E+01
   0.880  0.3751E+01  0.3719E+01  0.7915E+01
   0.890  0.3793E+01  0.3761E+01  0.7990E+01
   0.900  0.3835E+01  0.3802E+01  0.8067E+01
   0.910  0.3877E+01  0.3844E+01  0.8144E+01
   0.920  0.3920E+01  0.3885E+01  0.8222E+01
   0.930  0.3962E+01  0.3927E+01  0.8301E+01
   0.940  0.4004E+01  0.3969E+01  0.8381E+01
   0.950  0.4046E+01  0.4010E+01  0.8461E+01
   0.960  0.4088E+01  0.4052E+01  0.8543E+01
   0.970  0.4130E+01  0.4093E+01  0.8625E+01
   0.980  0.4172E+01  0.4134E+01  0.8708E+01
   0.990  0.4214E+01  0.4176E+01  0.8792E+01
   1.000  0.4256E+01  0.4217E+01  0.8877E+01
   1.010  0.4298E+01  0.4258E+01  0.8962E+01
   1.020  0.4339E+01  0.4299E+01  0.9049E+01
   1.030  0.4381E+01  0.4340E+01  0.9136E+01
   1.040  0.4422E+01  0.4381E+01  0.9224E+01
   1.050  0.4464E+01  0.4421E+01  0.9313E+01
   1.060  0.4505E+01  0.4462E+01  0.9402E+01
   1.070  0.4546E+01  0.4502E+01  0.9493E+01
   1.080  0.4586E+01  0.4542E+01  0.9584E+01
   1.090  0.4627E+01  0.4582E+01  0.9676E+01
   1.100  0.4667E+01  0.4622E+01  0.9769E+01
   1.110  0.4708E+01  0.4661E+01  0.9863E+01
   1.120  0.4748E+01  0.4700E+01  0.9957E+01
   1.130  0.4787E+01  0.4739E+01  0.1005E+02
   1.140  0.4827E+01  0.4778E+01  0.1015E+02
   1.150  0.4866E+01  0.4817E+01  0.1025E+02
   1.160  0.4905E+01  0.4855E+01  0.1034E+02
   1.170  0.4944E+01  0.4893E+01  0.1044E+02
   1.180  0.4983E+01  0.4930E+01  0.1054E+02
   1.190  0.5021E+01  0.4968E+01  0.1064E+02
   1.200  0.5059E+01  0.5005E+01  0.1074E+02
   1.210  0.5096E+01  0.5041E+01  0.1084E+02
   1.220  0.5133E+01  0.5078E+01  0.1094E+02
   1.230  0.5170E+01  0.5114E+01  0.1105E+02
   1.240  0.5207E+01  0.5149E+01  0.1115E+02
   1.250  0.5243E+01  0.5185E+01  0.1126E+02
   1.260  0.5279E+01  0.5220E+01  0.1136E+02
   1.270  0.5314E+01  0.5254E+01  0.1147E+02
   1.280  0.5349E+01  0.5288E+01  0.1157E+02
   1.290  0.5384E+01  0.5322E+01  0.1168E+02
   1.300  0.5418E+01  0.5355E+01  0.1179E+02
   1.310  0.5452E+01  0.5388E+01  0.1190E+02
   1.320  0.5485E+01  0.5420E+01  0.1200E+02
   1.330  0.5518E+01  0.5452E+01  0.1211E+02
   1.340  0.5551E+01  0.5483E+01  0.1222E+02
   1.350  0.5583E+01  0.5514E+01  0.1234E+02
   1.360  0.5614E+01  0.5545E+01  0.1245E+02
   1.370  0.5645E+01  0.5575E+01  0.1256E+02
   1.380  0.5676E+01  0.5604E+01  0.1267E+02
   1.390  0.5706E+01  0.5633E+01  0.1279E+02
   1.400  0.5735E+01  0.5661E+01  0.1290E+02
   1.410  0.5764E+01  0.5689E+01  0.1301E+02
   1.420  0.5792E+01  0.5716E+01  0.1313E+02
   1.430  0.5820E+01  0.5743E+01  0.1324E+02
   1.440  0.5847E+01  0.5769E+01  0.1336E+02
   1.450  0.5874E+01  0.5795E+01  0.1348E+02
   1.460  0.5900E+01  0.5819E+01  0.1359E+02
   1.470  0.5926E+01  0.5844E+01  0.1371E+02
   1.480  0.5951E+01  0.5867E+01  0.1383E+02
   1.490  0.5975E+01  0.5890E+01  0.1395E+02
   1.500  0.5999E+01  0.5913E+01  0.1407E+02
   1.510  0.6022E+01  0.5935E+01  0.1419E+02
   1.520  0.6044E+01  0.5956E+01  0.1431E+02
   1.530  0.6066E+01  0.5976E+01  0.1443E+02
   1.540  0.6087E+01  0.5996E+01  0.1455E+02
   1.550  0.6108E+01  0.6016E+01  0.1467E+02
   1.560  0.6128E+01  0.6034E+01  0.1479E+02
   1.570  0.6147E+01  0.6052E+01  0.1491E+02
   1.580  0.6165E+01  0.6069E+01  0.1504E+02
   1.590  0.6183E+01  0.6086E+01  0.1516E+02
   1.600  0.6200E+01  0.6101E+01  0.1528E+02
   1.610  0.6217E+01  0.6116E+01  0.1541E+02
   1.620  0.6233E+01  0.6131E+01  0.1553E+02
   1.630  0.6248E+01  0.6144E+01  0.1565E+02
   1.640  0.6262E+01  0.6157E+01  0.1578E+02
   1.650  0.6276E+01  0.6170E+01  0.1590E+02
   1.660  0.6289E+01  0.6181E+01  0.1603E+02
   1.670  0.6301E+01  0.6192E+01  0.1615E+02
   1.680  0.6313E+01  0.6202E+01  0.1628E+02
   1.690  0.6324E+01  0.6211E+01  0.1640E+02
   1.700  0.6334E+01  0.6220E+01  0.1653E+02
   1.710  0.6343E+01  0.6227E+01  0.1665E+02
   1.720  0.6352E+01  0.6234E+01  0.1678E+02
   1.730  0.6360E+01  0.6241E+01  0.1690E+02
   1.740  0.6367E+01  0.6246E+01  0.1703E+02
   1.750  0.6373E+01  0.6251E+01  0.1716E+02
   1.760  0.6379E+01  0.6255E+01  0.1728E+02
   1.770  0.6384E+01  0.6258E+01  0.1741E+02
   1.780  0.6388E+01  0.6261E+01  0.1754E+02
   1.790  0.6392E+01  0.6263E+01  0.1766E+02
   1.800  0.6395E+01  0.6264E+01  0.1779E+02
   1.810  0.6397E+01  0.6264E+01  0.1792E+02
   1.820  0.6398E+01  0.6263E+01  0.1804E+02
   1.830  0.6398E+01  0.6262E+01  0.1817E+02
   1.840  0.6398E+01  0.6260E+01  0.1830E+02
   1.850  0.6397E+01  0.6257E+01  0.1842E+02
   1.860  0.6395E+01  0.6254E+01  0.1855E+02
   1.870  0.6393E+01  0.6250E+01  0.1868E+02
   1.880  0.6390E+01  0.6244E+01  0.1880E+02
   1.890  0.6386E+01  0.6239E+01  0.1893E+02
   1.900  0.6381E+01  0.6232E+01  0.1905E+02
   1.910  0.6376E+01  0.6225E+01  0.1918E+02
   1.920  0.6370E+01  0.6217E+01  0.1931E+02
   1.930  0.6363E+01  0.6208E+01  0.1943E+02
   1.940  0.6356E+01  0.6199E+01  0.1956E+02
   1.950  0.6347E+01  0.6189E+01  0.1968E+02
   1.960  0.6338E+01  0.6178E+01  0.1981E+02
   1.970  0.6329E+01  0.6166E+01  0.1993E+02
   1.980  0.6318E+01  0.6154E+01  0.2006E+02
   1.990  0.6307E+01  0.6141E+01  0.2018E+02
   2.000  0.6296E+01  0.6127E+01  0.2031E+02
   2.010  0.6283E+01  0.6113E+01  0.2043E+02
   2.020  0.6270E+01  0.6098E+01  0.2055E+02
   2.030  0.6257E+01  0.6082E+01  0.2068E+02
   2.040  0.6242E+01  0.6065E+01  0.2080E+02
   2.050  0.6227E+01  0.6048E+01  0.2092E+02
   2.060  0.6212E+01  0.6030E+01  0.2105E+02
   2.070  0.6195E+01  0.6012E+01  0.2117E+02
   2.080  0.6178E+01  0.5993E+01  0.2129E+02
   2.090  0.6161E+01  0.5973E+01  0.2141E+02
   2.100  0.6143E+01  0.5953E+01  0.2153E+02
   2.110  0.6124E+01  0.5932E+01  0.2165E+02
   2.120  0.6105E+01  0.5910E+01  0.2177E+02
   2.130  0.6085E+01  0.5888E+01  0.2189E+02
   2.140  0.6064E+01  0.5866E+01  0.2201E+02
   2.150  0.6043E+01  0.5842E+01  0.2213E+02
   2.160  0.6022E+01  0.5818E+01  0.2225E+02
   2.170  0.5999E+01  0.5794E+01  0.2237E+02
   2.180  0.5977E+01  0.5769E+01  0.2248E+02
   2.190  0.5953E+01  0.5744E+01  0.2260E+02
   2.200  0.5930E+01  0.5718E+01  0.2272E+02
   2.210  0.5906E+01  0.5691E+01  0.2283E+02
   2.220  0.5881E+01  0.5664E+01  0.2295E+02
   2.230  0.5856E+01  0.5637E+01  0.2306E+02
   2.240  0.5830E+01  0.5609E+01  0.2318E+02
   2.250  0.5804E+01  0.5580E+01  0.2329E+02
   2.260  0.5777E+01  0.5551E+01  0.2341E+02
   2.270  0.5750E+01  0.5522E+01  0.2352E+02
   2.280  0.5723E+01  0.5492E+01  0.2363E+02
   2.290  0.5695E+01  0.5462E+01  0.2374E+02
   2.300  0.5667E+01  0.5431E+01  0.2385E+02
   2.310  0.5638E+01  0.5400E+01  0.2396E+02
   2.320  0.5609E+01  0.5369E+01  0.2407E+02
   2.330  0.5580E+01  0.5337E+01  0.2418E+02
   2.340  0.5550E+01  0.5305E+01  0.2429E+02
   2.350  0.5520E+01  0.5273E+01  0.2440E+02
   2.360  0.5490E+01  0.5240E+01  0.2451E+02
   2.370  0.5459E+01  0.5207E+01  0.2461E+02
   2.380  0.5428E+01  0.5173E+01  0.2472E+02
   2.390  0.5397E+01  0.5140E+01  0.2482E+02
   2.400  0.5366E+01  0.5106E+01  0.2493E+02
   2.410  0.5334E+01  0.5072E+01  0.2503E+02
   2.420  0.5302E+01  0.5037E+01  0.2514E+02
   2.430  0.5270E+01  0.5003E+01  0.2524E+02
   2.440  0.5238E+01  0.4968E+01  0.2534E+02
   2.450  0.5205E+01  0.4933E+01  0.2544E+02
   2.460  0.5172E+01  0.4897E+01  0.2554E+02
   2.470  0.5139E+01  0.4862E+01  0.2564E+02
   2.480  0.5106E+01  0.4826E+01  0.2574E+02
   2.490  0.5073E+01  0.4791E+01  0.2584E+02
   2.500  0.5040E+01  0.4755E+01  0.2594E+02
   2.510  0.5006E+01  0.4719E+01  0.2604E+02
   2.520  0.4973E+01  0.4683E+01  0.2613E+02
   2.530  0.4939E+01  0.4647E+01  0.2623E+02
   2.540  0.4906E+01  0.4610E+01  0.2632E+02
   2.550  0.4872E+01  0.4574E+01  0.2642E+02
   2.560  0.4838E+01  0.4538E+01  0.2651E+02
   2.570  0.4805E+01  0.4502E+01  0.2660E+02
   2.580  0.4771E+01  0.4465E+01  0.2670E+02
   2.590  0.4737E+01  0.4429E+01  0.2679E+02
   2.600  0.4703E+01  0.4392E+01  0.2688E+02
   2.610  0.4669E+01  0.4356E+01  0.2697E+02
   2.620  0.4636E+01  0.4320E+01  0.2706E+02
   2.630  0.4602E+01  0.4283E+01  0.2715E+02
   2.640  0.4569E+01  0.4247E+01  0.2724E+02
   2.650  0.4535E+01  0.4211E+01  0.2732E+02
   2.660  0.4502E+01  0.4175E+01  0.2741E+02
   2.670  0.4469E+01  0.4139E+01  0.2750E+02
   2.680  0.4435E+01  0.4103E+01  0.2758E+02
   2.690  0.4402E+01  0.4068E+01  0.2767E+02
   2.700  0.4370E+01  0.4032E+01  0.2775E+02
   2.710  0.4337E+01  0.3997E+01  0.2783E+02
   2.720  0.4304E+01  0.3962E+01  0.2792E+02
   2.730  0.4272E+01  0.3927E+01  0.2800E+02
   2.740  0.4240E+01  0.3892E+01  0.2808E+02
   2.750  0.4208E+01  0.3857E+01  0.2816E+02
   2.760  0.4176E+01  0.3823E+01  0.2824E+02
   2.770  0.4145E+01  0.3789E+01  0.2832E+02
   2.780  0.4114E+01  0.3755E+01  0.2840E+02
   2.790  0.4083E+01  0.3721E+01  0.2848E+02
   2.800  0.4052E+01  0.3687E+01  0.2855E+02
   2.810  0.4022E+01  0.3654E+01  0.2863E+02
   2.820  0.3992E+01  0.3621E+01  0.2871E+02
   2.830  0.3962E+01  0.3589E+01  0.2878E+02
   2.840  0.3932E+01  0.3557E+01  0.2886E+02
   2.850  0.3903E+01  0.3525E+01  0.2893E+02
   2.860  0.3874E+01  0.3493E+01  0.2901E+02
   2.870  0.3846E+01  0.3462E+01  0.2908E+02
   2.880  0.3818E+01  0.3431E+01  0.2915E+02
   2.890  0.3790E+01  0.3400E+01  0.2922E+02
   2.900  0.3763E+01  0.3370E+01  0.2929E+02
   2.910  0.3736E+01  0.3340E+01  0.2937E+02
   2.920  0.3709E+01  0.3310E+01  0.2944E+02
   2.930  0.3683E+01  0.3281E+01  0.2951E+02
   2.940  0.3657E+01  0.3253E+01  0.2957E+02
   2.950  0.3632E+01  0.3224E+01  0.2964E+02
   2.960  0.3607E+01  0.3196E+01  0.2971E+02
   2.970  0.3583E+01  0.3169E+01  0.2978E+02
   2.980  0.3558E+01  0.3142E+01  0.2985E+02
   2.990  0.3535E+01  0.3115E+01  0.2991E+02
   3.000  0.3512E+01  0.3089E+01  0.2998E+02
   3.010  0.3489E+01  0.3064E+01  0.3004E+02
   3.020  0.3467E+01  0.3038E+01  0.3011E+02
   3.030  0.3445E+01  0.3014E+01  0.3017E+02
   3.040  0.3424E+01  0.2989E+01  0.3024E+02
   3.050  0.3403E+01  0.2965E+01  0.3030E+02
   3.060  0.3383E+01  0.2942E+01  0.3036E+02
   3.070  0.3363E+01  0.2919E+01  0.3043E+02
   3.080  0.3344E+01  0.2897E+01  0.3049E+02
   3.090  0.3325E+01  0.2875E+01  0.3055E+02
   3.100  0.3307E+01  0.2853E+01  0.3061E+02
   3.110  0.3289E+01  0.2832E+01  0.3067E+02
   3.120  0.3272E+01  0.2812E+01  0.3073E+02
   3.130  0.3256E+01  0.2792E+01  0.3080E+02
   3.140  0.3239E+01  0.2773E+01  0.3086E+02
   3.150  0.3224E+01  0.2754E+01  0.3092E+02
   3.160  0.3209E+01  0.2736E+01  0.3097E+02
   3.170  0.3194E+01  0.2718E+01  0.3103E+02
   3.180  0.3181E+01  0.2701E+01  0.3109E+02
   3.190  0.3167E+01  0.2684E+01  0.3115E+02
   3.200  0.3154E+01  0.2668E+01  0.3121E+02
   3.210  0.3142E+01  0.2652E+01  0.3127E+02
   3.220  0.3130E+01  0.2637E+01  0.3133E+02
   3.230  0.3119E+01  0.2622E+01  0.3138E+02
   3.240  0.3109E+01  0.2608E+01  0.3144E+02
   3.250  0.3099E+01  0.2594E+01  0.3150E+02
   3.260  0.3089E+01  0.2581E+01  0.3155E+02
   3.270  0.3081E+01  0.2569E+01  0.3161E+02
   3.280  0.3072E+01  0.2557E+01  0.3167E+02
   3.290  0.3065E+01  0.2546E+01  0.3172E+02
   3.300  0.3057E+01  0.2535E+01  0.3178E+02
   3.310  0.3051E+01  0.2525E+01  0.3183E+02
   3.320  0.3045E+01  0.2515E+01  0.3189E+02
   3.330  0.3039E+01  0.2506E+01  0.3194E+02
   3.340  0.3035E+01  0.2497E+01  0.3200E+02
   3.350  0.3030E+01  0.2489E+01  0.3206E+02
   3.360  0.3027E+01  0.2481E+01  0.3211E+02
   3.370  0.3023E+01  0.2474E+01  0.3217E+02
   3.380  0.3021E+01  0.2468E+01  0.3222E+02
   3.390  0.3019E+01  0.2462E+01  0.3228E+02
   3.400  0.3017E+01  0.2456E+01  0.3233E+02
   3.410  0.3016E+01  0.2451E+01  0.3238E+02
   3.420  0.3016E+01  0.2447E+01  0.3244E+02
   3.430  0.3016E+01  0.2443E+01  0.3249E+02
   3.440  0.3017E+01  0.2439E+01  0.3255E+02
   3.450  0.3019E+01  0.2437E+01  0.3260E+02
   3.460  0.3020E+01  0.2434E+01  0.3266E+02
   3.470  0.3023E+01  0.2432E+01  0.3271E+02
   3.480  0.3026E+01  0.2431E+01  0.3277E+02
   3.490  0.3029E+01  0.2430E+01  0.3282E+02
   3.500  0.3034E+01  0.2430E+01  0.3288E+02
   3.510  0.3038E+01  0.2430E+01  0.3293E+02
   3.520  0.3043E+01  0.2431E+01  0.3299E+02
   3.530  0.3049E+01  0.2432E+01  0.3304E+02
   3.540  0.3055E+01  0.2434E+01  0.3309E+02
   3.550  0.3062E+01  0.2436E+01  0.3315E+02
   3.560  0.3069E+01  0.2439E+01  0.3320E+02
   3.570  0.3077E+01  0.2442E+01  0.3326E+02
   3.580  0.3085E+01  0.2445E+01  0.3332E+02
   3.590  0.3094E+01  0.2449E+01  0.3337E+02
   3.600  0.3103E+01  0.2454E+01  0.3343E+02
   3.610  0.3113E+01  0.2459E+01  0.3348E+02
   3.620  0.3123E+01  0.2464E+01  0.3354E+02
   3.630  0.3134E+01  0.2470E+01  0.3359E+02
   3.640  0.3145E+01  0.2476E+01  0.3365E+02
   3.650  0.3157E+01  0.2483E+01  0.3371E+02
   3.660  0.3169E+01  0.2490E+01  0.3376E+02
   3.670  0.3182E+01  0.2498E+01  0.3382E+02
   3.680  0.3195E+01  0.2506E+01  0.3388E+02
   3.690  0.3209E+01  0.2514E+01  0.3393E+02
   3.700  0.3223E+01  0.2523E+01  0.3399E+02
   3.710  0.3237E+01  0.2533E+01  0.3405E+02
   3.720  0.3252E+01  0.2542E+01  0.3411E+02
   3.730  0.3267E+01  0.2552E+01  0.3417E+02
   3.740  0.3283E+01  0.2563E+01  0.3422E+02
   3.750  0.3299E+01  0.2574E+01  0.3428E+02
   3.760  0.3316E+01  0.2585E+01  0.3434E+02
   3.770  0.3333E+01  0.2597E+01  0.3440E+02
   3.780  0.3351E+01  0.2609E+01  0.3446E+02
   3.790  0.3368E+01  0.2621E+01  0.3452E+02
   3.800  0.3387E+01  0.2634E+01  0.3458E+02
   3.810  0.3405E+01  0.2647E+01  0.3464E+02
   3.820  0.3424E+01  0.2660E+01  0.3470E+02
   3.830  0.3444E+01  0.2674E+01  0.3476E+02
   3.840  0.3463E+01  0.2688E+01  0.3482E+02
   3.850  0.3483E+01  0.2703E+01  0.3489E+02
   3.860  0.3504E+01  0.2717E+01  0.3495E+02
   3.870  0.3525E+01  0.2732E+01  0.3501E+02
   3.880  0.3546E+01  0.2748E+01  0.3507E+02
   3.890  0.3567E+01  0.2763E+01  0.3514E+02
   3.900  0.3589E+01  0.2779E+01  0.3520E+02
   3.910  0.3611E+01  0.2796E+01  0.3527E+02
   3.920  0.3634E+01  0.2812E+01  0.3533E+02
   3.930  0.3656E+01  0.2829E+01  0.3539E+02
   3.940  0.3679E+01  0.2846E+01  0.3546E+02
   3.950  0.3703E+01  0.2864E+01  0.3553E+02
   3.960  0.3726E+01  0.2881E+01  0.3559E+02
   3.970  0.3750E+01  0.2899E+01  0.3566E+02
   3.980  0.3774E+01  0.2918E+01  0.3573E+02
   3.990  0.3799E+01  0.2936E+01  0.3579E+02
   4.000  0.3824E+01  0.2955E+01  0.3586E+02
   4.010  0.3849E+01  0.2974E+01  0.3593E+02
   4.020  0.3874E+01  0.2993E+01  0.3600E+02
   4.030  0.3899E+01  0.3012E+01  0.3607E+02
   4.040  0.3925E+01  0.3032E+01  0.3614E+02
   4.050  0.3951E+01  0.3052E+01  0.3621E+02
   4.060  0.3977E+01  0.3072E+01  0.3628E+02
   4.070  0.4003E+01  0.3092E+01  0.3635E+02
   4.080  0.4030E+01  0.3112E+01  0.3642E+02
   4.090  0.4056E+01  0.3133E+01  0.3649E+02
   4.100  0.4083E+01  0.3154E+01  0.3656E+02
   4.110  0.4111E+01  0.3175E+01  0.3664E+02
   4.120  0.4138E+01  0.3196E+01  0.3671E+02
   4.130  0.4165E+01  0.3217E+01  0.3678E+02
   4.140  0.4193E+01  0.3239E+01  0.3686E+02
   4.150  0.4221E+01  0.3261E+01  0.3693E+02
   4.160  0.4249E+01  0.3283E+01  0.3701E+02
   4.170  0.4277E+01  0.3305E+01  0.3708E+02
   4.180  0.4305E+01  0.3327E+01  0.3716E+02
   4.190  0.4333E+01  0.3349E+01  0.3724E+02
   4.200  0.4362E+01  0.3372E+01  0.3731E+02
   4.210  0.4390E+01  0.3394E+01  0.3739E+02
   4.220  0.4419E+01  0.3417E+01  0.3747E+02
   4.230  0.4448E+01  0.3440E+01  0.3755E+02
   4.240  0.4477E+01  0.3463E+01  0.3763E+02
   4.250  0.4506E+01  0.3486E+01  0.3771E+02
   4.260  0.4535E+01  0.3509E+01  0.3779E+02
   4.270  0.4564E+01  0.3533E+01  0.3787E+02
   4.280  0.4593E+01  0.3556E+01  0.3795E+02
   4.290  0.4623E+01  0.3580E+01  0.3803E+02
   4.300  0.4652E+01  0.3603E+01  0.3812E+02
   4.310  0.4682E+01  0.3627E+01  0.3820E+02
   4.320  0.4711E+01  0.3651E+01  0.3828E+02
   4.330  0.4741E+01  0.3675E+01  0.3837E+02
   4.340  0.4770E+01  0.3699E+01  0.3845E+02
   4.350  0.4800E+01  0.3723E+01  0.3854E+02
   4.360  0.4830E+01  0.3747E+01  0.3862E+02
   4.370  0.4859E+01  0.3771E+01  0.3871E+02
   4.380  0.4889E+01  0.3795E+01  0.3880E+02
   4.390  0.4919E+01  0.3819E+01  0.3888E+02
   4.400  0.4948E+01  0.3844E+01  0.3897E+02
   4.410  0.4978E+01  0.3868E+01  0.3906E+02
   4.420  0.5008E+01  0.3893E+01  0.3915E+02
   4.430  0.5038E+01  0.3917E+01  0.3924E+02
   4.440  0.5067E+01  0.3942E+01  0.3933E+02
   4.450  0.5097E+01  0.3966E+01  0.3942E+02
   4.460  0.5127E+01  0.3991E+01  0.3951E+02
   4.470  0.5156E+01  0.4016E+01  0.3960E+02
   4.480  0.5186E+01  0.4040E+01  0.3969E+02
   4.490  0.5215E+01  0.4065E+01  0.3979E+02
   4.500  0.5245E+01  0.4090E+01  0.3988E+02
   4.510  0.5274E+01  0.4115E+01  0.3997E+02
   4.520  0.5304E+01  0.4139E+01  0.4007E+02
   4.530  0.5333E+01  0.4164E+01  0.4016E+02
   4.540  0.5362E+01  0.4189E+01  0.4026E+02
   4.550  0.5391E+01  0.4214E+01  0.4035E+02
   4.560  0.5420E+01  0.4238E+01  0.4045E+02
   4.570  0.5449E+01  0.4263E+01  0.4055E+02
   4.580  0.5478E+01  0.4288E+01  0.4065E+02
   4.590  0.5507E+01  0.4313E+01  0.4074E+02
   4.600  0.5536E+01  0.4338E+01  0.4084E+02
   4.610  0.5565E+01  0.4362E+01  0.4094E+02
   4.620  0.5593E+01  0.4387E+01  0.4104E+02
   4.630  0.5622E+01  0.4412E+01  0.4114E+02
   4.640  0.5650E+01  0.4436E+01  0.4124E+02
   4.650  0.5678E+01  0.4461E+01  0.4134E+02
   4.660  0.5706E+01  0.4486E+01  0.4145E+02
   4.670  0.5734E+01  0.4510E+01  0.4155E+02
   4.680  0.5762E+01  0.4535E+01  0.4165E+02
   4.690  0.5790E+01  0.4559E+01  0.4176E+02
   4.700  0.5818E+01  0.4584E+01  0.4186E+02
   4.710  0.5845E+01  0.4608E+01  0.4196E+02
   4.720  0.5872E+01  0.4633E+01  0.4207E+02
   4.730  0.5900E+01  0.4657E+01  0.4217E+02
   4.740  0.5927E+01  0.4681E+01  0.4228E+02
   4.750  0.5954E+01  0.4705E+01  0.4239E+02
   4.760  0.5980E+01  0.4730E+01  0.4249E+02
   4.770  0.6007E+01  0.4754E+01  0.4260E+02
   4.780  0.6033E+01  0.4778E+01  0.4271E+02
   4.790  0.6060E+01  0.4802E+01  0.4282E+02
   4.800  0.6086E+01  0.4826E+01  0.4293E+02
   4.810  0.6112E+01  0.4850E+01  0.4304E+02
   4.820  0.6138E+01  0.4873E+01  0.4315E+02
   4.830  0.6163E+01  0.4897E+01  0.4326E+02
   4.840  0.6189E+01  0.4921E+01  0.4337E+02
   4.850  0.6214E+01  0.4944E+01  0.4348E+02
   4.860  0.6239E+01  0.4968E+01  0.4359E+02
   4.870  0.6264E+01  0.4991E+01  0.4371E+02
   4.880  0.6289E+01  0.5014E+01  0.4382E+02
   4.890  0.6314E+01  0.5037E+01  0.4393E+02
   4.900  0.6338E+01  0.5060E+01  0.4405E+02
   4.910  0.6362E+01  0.5083E+01  0.4416E+02
   4.920  0.6386E+01  0.5106E+01  0.4428E+02
   4.930  0.6410E+01  0.5129E+01  0.4439E+02
   4.940  0.6434E+01  0.5152E+01  0.4451E+02
   4.950  0.6457E+01  0.5174E+01  0.4462E+02
   4.960  0.6481E+01  0.5197E+01  0.4474E+02
   4.970  0.6504E+01  0.5219E+01  0.4486E+02
   4.980  0.6527E+01  0.5241E+01  0.4497E+02
   4.990  0.6549E+01  0.5264E+01  0.4509E+02
   5.000  0.6572E+01  0.5286E+01  0.4521E+02
   5.010  0.6594E+01  0.5307E+01  0.4533E+02
   5.020  0.6616E+01  0.5329E+01  0.4545E+02
   5.030  0.6638E+01  0.5351E+01  0.4557E+02
   5.040  0.6660E+01  0.5372E+01  0.4569E+02
   5.050  0.6681E+01  0.5394E+01  0.4581E+02
   5.060  0.6703E+01  0.5415E+01  0.4593E+02
   5.070  0.6724E+01  0.5436E+01  0.4605E+02
   5.080  0.6745E+01  0.5457E+01  0.4618E+02
   5.090  0.6766E+01  0.5478E+01  0.4630E+02
   5.100  0.6786E+01  0.5498E+01  0.4642E+02
   5.110  0.6807E+01  0.5519E+01  0.4654E+02
   5.120  0.6827E+01  0.5539E+01  0.4667E+02
   5.130  0.6847E+01  0.5559E+01  0.4679E+02
   5.140  0.6866E+01  0.5579E+01  0.4692E+02
   5.150  0.6886E+01  0.5599E+01  0.4704E+02
   5.160  0.6905E+01  0.5619E+01  0.4717E+02
   5.170  0.6925E+01  0.5638E+01  0.4729E+02
   5.180  0.6944E+01  0.5658E+01  0.4742E+02
   5.190  0.6962E+01  0.5677E+01  0.4754E+02
   5.200  0.6981E+01  0.5696E+01  0.4767E+02
   5.210  0.6999E+01  0.5714E+01  0.4780E+02
   5.220  0.7018E+01  0.5733E+01  0.4793E+02
   5.230  0.7036E+01  0.5752E+01  0.4805E+02
   5.240  0.7053E+01  0.5770E+01  0.4818E+02
   5.250  0.7071E+01  0.5788E+01  0.4831E+02
   5.260  0.7089E+01  0.5806E+01  0.4844E+02
   5.270  0.7106E+01  0.5823E+01  0.4857E+02
   5.280  0.7123E+01  0.5841E+01  0.4870E+02
   5.290  0.7140E+01  0.5858E+01  0.4883E+02
   5.300  0.7157E+01  0.5875E+01  0.4896E+02
   5.310  0.7173E+01  0.5892E+01  0.4909E+02
   5.320  0.7189E+01  0.5909E+01  0.4922E+02
   5.330  0.7206E+01  0.5925E+01  0.4935E+02
   5.340  0.7222E+01  0.5942E+01  0.4948E+02
   5.350  0.7238E+01  0.5958E+01  0.4962E+02
   5.360  0.7253E+01  0.5973E+01  0.4975E+02
   5.370  0.7269E+01  0.5989E+01  0.4988E+02
   5.380  0.7284E+01  0.6004E+01  0.5001E+02
   5.390  0.7299E+01  0.6019E+01  0.5015E+02
   5.400  0.7314E+01  0.6034E+01  0.5028E+02
   5.410  0.7329E+01  0.6049E+01  0.5041E+02
   5.420  0.7344E+01  0.6063E+01  0.5055E+02
   5.430  0.7358E+01  0.6077E+01  0.5068E+02
   5.440  0.7373E+01  0.6091E+01  0.5082E+02
   5.450  0.7387E+01  0.6105E+01  0.5095E+02
   5.460  0.7401E+01  0.6118E+01  0.5109E+02
   5.470  0.7415E+01  0.6132E+01  0.5122E+02
   5.480  0.7429E+01  0.6145E+01  0.5136E+02
   5.490  0.7443E+01  0.6157E+01  0.5149E+02
   5.500  0.7456E+01  0.6170E+01  0.5163E+02
   5.510  0.7470E+01  0.6182E+01  0.5177E+02
   5.520  0.7483E+01  0.6194E+01  0.5190E+02
   5.530  0.7496E+01  0.6205E+01  0.5204E+02
   5.540  0.7509E+01  0.6217E+01  0.5218E+02
   5.550  0.7522E+01  0.6228E+01  0.5231E+02
   5.560  0.7535E+01  0.6238E+01  0.5245E+02
   5.570  0.7547E+01  0.6249E+01  0.5259E+02
   5.580  0.7560E+01  0.6259E+01  0.5273E+02
   5.590  0.7572E+01  0.6269E+01  0.5287E+02
   5.600  0.7585E+01  0.6279E+01  0.5301E+02
   5.610  0.7597E+01  0.6288E+01  0.5314E+02
   5.620  0.7609E+01  0.6297E+01  0.5328E+02
   5.630  0.7621E+01  0.6306E+01  0.5342E+02
   5.640  0.7633E+01  0.6314E+01  0.5356E+02
   5.650  0.7645E+01  0.6322E+01  0.5370E+02
   5.660  0.7656E+01  0.6330E+01  0.5384E+02
   5.670  0.7668E+01  0.6338E+01  0.5398E+02
   5.680  0.7680E+01  0.6345E+01  0.5412E+02
   5.690  0.7691E+01  0.6352E+01  0.5426E+02
   5.700  0.7702E+01  0.6359E+01  0.5440E+02
   5.710  0.7714E+01  0.6365E+01  0.5454E+02
   5.720  0.7725E+01  0.6371E+01  0.5469E+02
   5.730  0.7736E+01  0.6377E+01  0.5483E+02
   5.740  0.7747E+01  0.6382E+01  0.5497E+02
   5.750  0.7758E+01  0.6387E+01  0.5511E+02
   5.760  0.7769E+01  0.6392E+01  0.5525E+02
   5.770  0.7780E+01  0.6396E+01  0.5539E+02
   5.780  0.7791E+01  0.6400E+01  0.5553E+02
   5.790  0.7801E+01  0.6404E+01  0.5568E+02
   5.800  0.7812E+01  0.6408E+01  0.5582E+02
   5.810  0.7823E+01  0.6411E+01  0.5596E+02
   5.820  0.7833E+01  0.6413E+01  0.5610E+02
   5.830  0.7844E+01  0.6416E+01  0.5625E+02
   5.840  0.7854E+01  0.6418E+01  0.5639E+02
   5.850  0.7864E+01  0.6420E+01  0.5653E+02
   5.860  0.7875E+01  0.6421E+01  0.5667E+02
   5.870  0.7885E+01  0.6422E+01  0.5682E+02
   5.880  0.7895E+01  0.6423E+01  0.5696E+02
   5.890  0.7906E+01  0.6423E+01  0.5710E+02
   5.900  0.7916E+01  0.6423E+01  0.5725E+02
   5.910  0.7926E+01  0.6423E+01  0.5739E+02
   5.920  0.7936E+01  0.6422E+01  0.5753E+02
   5.930  0.7946E+01  0.6421E+01  0.5768E+02
   5.940  0.7956E+01  0.6419E+01  0.5782E+02
   5.950  0.7966E+01  0.6418E+01  0.5797E+02
   5.960  0.7976E+01  0.6416E+01  0.5811E+02
   5.970  0.7986E+01  0.6413E+01  0.5825E+02
   5.980  0.7996E+01  0.6410E+01  0.5840E+02
   5.990  0.8006E+01  0.6407E+01  0.5854E+02
   6.000  0.8016E+01  0.6404E+01  0.5869E+02
   6.010  0.8026E+01  0.6400E+01  0.5883E+02
   6.020  0.8036E+01  0.6395E+01  0.5897E+02
   6.030  0.8046E+01  0.6391E+01  0.5912E+02
   6.040  0.8056E+01  0.6386E+01  0.5926E+02
   6.050  0.8065E+01  0.6381E+01  0.5941E+02
   6.060  0.8075E+01  0.6375E+01  0.5955E+02
   6.070  0.8085E+01  0.6369E+01  0.5970E+02
   6.080  0.8095E+01  0.6362E+01  0.5984E+02
   6.090  0.8104E+01  0.6356E+01  0.5999E+02
   6.100  0.8114E+01  0.6348E+01  0.6013E+02
   6.110  0.8124E+01  0.6341E+01  0.6028E+02
   6.120  0.8133E+01  0.6333E+01  0.6042E+02
   6.130  0.8143E+01  0.6325E+01  0.6056E+02
   6.140  0.8153E+01  0.6316E+01  0.6071E+02
   6.150  0.8162E+01  0.6307E+01  0.6085E+02
   6.160  0.8172E+01  0.6298E+01  0.6100E+02
   6.170  0.8181E+01  0.6289E+01  0.6114E+02
   6.180  0.8191E+01  0.6279E+01  0.6129E+02
   6.190  0.8200E+01  0.6268E+01  0.6143E+02
   6.200  0.8210E+01  0.6257E+01  0.6158E+02
   6.210  0.8219E+01  0.6246E+01  0.6172E+02
   6.220  0.8228E+01  0.6235E+01  0.6187E+02
   6.230  0.8238E+01  0.6223E+01  0.6201E+02
   6.240  0.8247E+01  0.6211E+01  0.6216E+02
   6.250  0.8256E+01  0.6199E+01  0.6230E+02
   6.260  0.8266E+01  0.6186E+01  0.6245E+02
   6.270  0.8275E+01  0.6173E+01  0.6259E+02
   6.280  0.8284E+01  0.6159E+01  0.6273E+02
   6.290  0.8293E+01  0.6145E+01  0.6288E+02
   6.300  0.8302E+01  0.6131E+01  0.6302E+02
   6.310  0.8311E+01  0.6117E+01  0.6317E+02
   6.320  0.8320E+01  0.6102E+01  0.6331E+02
   6.330  0.8329E+01  0.6087E+01  0.6346E+02
   6.340  0.8338E+01  0.6071E+01  0.6360E+02
   6.350  0.8347E+01  0.6055E+01  0.6374E+02
   6.360  0.8355E+01  0.6039E+01  0.6389E+02
   6.370  0.8364E+01  0.6022E+01  0.6403E+02
   6.380  0.8373E+01  0.6006E+01  0.6418E+02
   6.390  0.8381E+01  0.5988E+01  0.6432E+02
   6.400  0.8389E+01  0.5971E+01  0.6446E+02
   6.410  0.8398E+01  0.5953E+01  0.6461E+02
   6.420  0.8406E+01  0.5935E+01  0.6475E+02
   6.430  0.8414E+01  0.5916E+01  0.6489E+02
   6.440  0.8422E+01  0.5898E+01  0.6504E+02
   6.450  0.8430E+01  0.5879E+01  0.6518E+02
   6.460  0.8438E+01  0.5859E+01  0.6532E+02
   6.470  0.8446E+01  0.5840E+01  0.6546E+02
   6.480  0.8453E+01  0.5820E+01  0.6561E+02
   6.490  0.8461E+01  0.5799E+01  0.6575E+02
   6.500  0.8468E+01  0.5779E+01  0.6589E+02
   6.510  0.8475E+01  0.5758E+01  0.6603E+02
   6.520  0.8482E+01  0.5737E+01  0.6618E+02
   6.530  0.8489E+01  0.5715E+01  0.6632E+02
   6.540  0.8496E+01  0.5694E+01  0.6646E+02
   6.550  0.8503E+01  0.5672E+01  0.6660E+02
   6.560  0.8509E+01  0.5650E+01  0.6674E+02
   6.570  0.8516E+01  0.5627E+01  0.6689E+02
   6.580  0.8522E+01  0.5604E+01  0.6703E+02
   6.590  0.8528E+01  0.5581E+01  0.6717E+02
   6.600  0.8534E+01  0.5558E+01  0.6731E+02
   6.610  0.8540E+01  0.5535E+01  0.6745E+02
   6.620  0.8545E+01  0.5511E+01  0.6759E+02
   6.630  0.8550E+01  0.5487E+01  0.6773E+02
   6.640  0.8555E+01  0.5463E+01  0.6787E+02
   6.650  0.8560E+01  0.5438E+01  0.6801E+02
   6.660  0.8565E+01  0.5414E+01  0.6815E+02
   6.670  0.8569E+01  0.5389E+01  0.6829E+02
   6.680  0.8574E+01  0.5363E+01  0.6843E+02
   6.690  0.8577E+01  0.5338E+01  0.6857E+02
   6.700  0.8581E+01  0.5313E+01  0.6871E+02
   6.710  0.8585E+01  0.5287E+01  0.6885E+02
   6.720  0.8588E+01  0.5261E+01  0.6898E+02
   6.730  0.8591E+01  0.5235E+01  0.6912E+02
   6.740  0.8594E+01  0.5208E+01  0.6926E+02
   6.750  0.8596E+01  0.5182E+01  0.6940E+02
   6.760  0.8598E+01  0.5155E+01  0.6954E+02
   6.770  0.8600E+01  0.5128E+01  0.6967E+02
   6.780  0.8602E+01  0.5101E+01  0.6981E+02
   6.790  0.8603E+01  0.5074E+01  0.6995E+02
   6.800  0.8604E+01  0.5047E+01  0.7008E+02
   6.810  0.8605E+01  0.5019E+01  0.7022E+02
   6.820  0.8605E+01  0.4992E+01  0.7036E+02
   6.830  0.8605E+01  0.4964E+01  0.7049E+02
   6.840  0.8605E+01  0.4936E+01  0.7063E+02
   6.850  0.8605E+01  0.4908E+01  0.7076E+02
   6.860  0.8604E+01  0.4880E+01  0.7090E+02
   6.870  0.8602E+01  0.4851E+01  0.7103E+02
   6.880  0.8601E+01  0.4823E+01  0.7117E+02
   6.890  0.8599E+01  0.4794E+01  0.7130E+02
   6.900  0.8597E+01  0.4766E+01  0.7143E+02
   6.910  0.8594E+01  0.4737E+01  0.7157E+02
   6.920  0.8591E+01  0.4708E+01  0.7170E+02
   6.930  0.8587E+01  0.4679E+01  0.7183E+02
   6.940  0.8584E+01  0.4650E+01  0.7196E+02
   6.950  0.8579E+01  0.4621E+01  0.7210E+02
   6.960  0.8575E+01  0.4592E+01  0.7223E+02
   6.970  0.8570E+01  0.4563E+01  0.7236E+02
   6.980  0.8564E+01  0.4533E+01  0.7249E+02
   6.990  0.8558E+01  0.4504E+01  0.7262E+02
   7.000  0.8552E+01  0.4475E+01  0.7275E+02
   7.010  0.8546E+01  0.4445E+01  0.7288E+02
   7.020  0.8538E+01  0.4416E+01  0.7301E+02
   7.030  0.8531E+01  0.4387E+01  0.7314E+02
   7.040  0.8523E+01  0.4357E+01  0.7327E+02
   7.050  0.8515E+01  0.4328E+01  0.7340E+02
   7.060  0.8506E+01  0.4298E+01  0.7353E+02
   7.070  0.8496E+01  0.4269E+01  0.7365E+02
   7.080  0.8487E+01  0.4239E+01  0.7378E+02
   7.090  0.8476E+01  0.4210E+01  0.7391E+02
   7.100  0.8466E+01  0.4180E+01  0.7403E+02
   7.110  0.8455E+01  0.4151E+01  0.7416E+02
   7.120  0.8443E+01  0.4121E+01  0.7429E+02
   7.130  0.8431E+01  0.4092E+01  0.7441E+02
   7.140  0.8418E+01  0.4063E+01  0.7454E+02
   7.150  0.8405E+01  0.4033E+01  0.7466E+02
   7.160  0.8392E+01  0.4004E+01  0.7478E+02
   7.170  0.8378E+01  0.3975E+01  0.7491E+02
   7.180  0.8363E+01  0.3946E+01  0.7503E+02
   7.190  0.8348E+01  0.3917E+01  0.7515E+02
   7.200  0.8333E+01  0.3888E+01  0.7528E+02
   7.210  0.8317E+01  0.3859E+01  0.7540E+02
   7.220  0.8300E+01  0.3830E+01  0.7552E+02
   7.230  0.8283E+01  0.3802E+01  0.7564E+02
   7.240  0.8266E+01  0.3773E+01  0.7576E+02
   7.250  0.8248E+01  0.3744E+01  0.7588E+02
   7.260  0.8229E+01  0.3716E+01  0.7600E+02
   7.270  0.8210E+01  0.3688E+01  0.7612E+02
   7.280  0.8191E+01  0.3660E+01  0.7624E+02
   7.290  0.8171E+01  0.3632E+01  0.7635E+02
   7.300  0.8150E+01  0.3604E+01  0.7647E+02
   7.310  0.8129E+01  0.3576E+01  0.7659E+02
   7.320  0.8108E+01  0.3549E+01  0.7671E+02
   7.330  0.8086E+01  0.3521E+01  0.7682E+02
   7.340  0.8063E+01  0.3494E+01  0.7694E+02
   7.350  0.8040E+01  0.3467E+01  0.7705E+02
   7.360  0.8016E+01  0.3440E+01  0.7717E+02
   7.370  0.7992E+01  0.3413E+01  0.7728E+02
   7.380  0.7968E+01  0.3387E+01  0.7739E+02
   7.390  0.7943E+01  0.3361E+01  0.7751E+02
   7.400  0.7917E+01  0.3334E+01  0.7762E+02
   7.410  0.7891E+01  0.3309E+01  0.7773E+02
   7.420  0.7865E+01  0.3283E+01  0.7784E+02
   7.430  0.7838E+01  0.3257E+01  0.7795E+02
   7.440  0.7810E+01  0.3232E+01  0.7807E+02
   7.450  0.7782E+01  0.3207E+01  0.7817E+02
   7.460  0.7754E+01  0.3182E+01  0.7828E+02
   7.470  0.7725E+01  0.3158E+01  0.7839E+02
   7.480  0.7695E+01  0.3133E+01  0.7850E+02
   7.490  0.7665E+01  0.3109E+01  0.7861E+02
   7.500  0.7635E+01  0.3085E+01  0.7872E+02
   7.510  0.7604E+01  0.3062E+01  0.7882E+02
   7.520  0.7573E+01  0.3038E+01  0.7893E+02
   7.530  0.7541E+01  0.3015E+01  0.7903E+02
   7.540  0.7509E+01  0.2992E+01  0.7914E+02
   7.550  0.7476E+01  0.2970E+01  0.7924E+02
   7.560  0.7443E+01  0.2948E+01  0.7935E+02
   7.570  0.7409E+01  0.2926E+01  0.7945E+02
   7.580  0.7375E+01  0.2904E+01  0.7955E+02
   7.590  0.7341E+01  0.2883E+01  0.7966E+02
   7.600  0.7306E+01  0.2862E+01  0.7976E+02
   7.610  0.7271E+01  0.2841E+01  0.7986E+02
   7.620  0.7235E+01  0.2820E+01  0.7996E+02
   7.630  0.7200E+01  0.2800E+01  0.8006E+02
   7.640  0.7163E+01  0.2780E+01  0.8016E+02
   7.650  0.7126E+01  0.2761E+01  0.8026E+02
   7.660  0.7089E+01  0.2742E+01  0.8036E+02
   7.670  0.7052E+01  0.2723E+01  0.8045E+02
   7.680  0.7014E+01  0.2705E+01  0.8055E+02
   7.690  0.6976E+01  0.2686E+01  0.8065E+02
   7.700  0.6937E+01  0.2669E+01  0.8074E+02
   7.710  0.6898E+01  0.2651E+01  0.8084E+02
   7.720  0.6859E+01  0.2634E+01  0.8093E+02
   7.730  0.6820E+01  0.2617E+01  0.8103E+02
   7.740  0.6780E+01  0.2601E+01  0.8112E+02
   7.750  0.6740E+01  0.2585E+01  0.8122E+02
   7.760  0.6699E+01  0.2569E+01  0.8131E+02
   7.770  0.6659E+01  0.2554E+01  0.8140E+02
   7.780  0.6618E+01  0.2539E+01  0.8149E+02
   7.790  0.6576E+01  0.2525E+01  0.8158E+02
   7.800  0.6535E+01  0.2511E+01  0.8167E+02
   7.810  0.6493E+01  0.2497E+01  0.8176E+02
   7.820  0.6451E+01  0.2484E+01  0.8185E+02
   7.830  0.6409E+01  0.2471E+01  0.8194E+02
   7.840  0.6367E+01  0.2458E+01  0.8203E+02
   7.850  0.6324E+01  0.2446E+01  0.8212E+02
   7.860  0.6282E+01  0.2435E+01  0.8220E+02
   7.870  0.6239E+01  0.2423E+01  0.8229E+02
   7.880  0.6196E+01  0.2413E+01  0.8238E+02
   7.890  0.6152E+01  0.2402E+01  0.8246E+02
   7.900  0.6109E+01  0.2392E+01  0.8255E+02
   7.910  0.6065E+01  0.2383E+01  0.8263E+02
   7.920  0.6022E+01  0.2373E+01  0.8272E+02
   7.930  0.5978E+01  0.2365E+01  0.8280E+02
   7.940  0.5934E+01  0.2356E+01  0.8288E+02
   7.950  0.5890E+01  0.2348E+01  0.8297E+02
   7.960  0.5846E+01  0.2341E+01  0.8305E+02
   7.970  0.5802E+01  0.2334E+01  0.8313E+02
   7.980  0.5758E+01  0.2328E+01  0.8321E+02
   7.990  0.5714E+01  0.2321E+01  0.8329E+02
   8.000  0.5670E+01  0.2316E+01  0.8337E+02
   8.010  0.5626E+01  0.2311E+01  0.8345E+02
   8.020  0.5581E+01  0.2306E+01  0.8353E+02
   8.030  0.5537E+01  0.2302E+01  0.8361E+02
   8.040  0.5493E+01  0.2298E+01  0.8368E+02
   8.050  0.5449E+01  0.2294E+01  0.8376E+02
   8.060  0.5405E+01  0.2292E+01  0.8384E+02
   8.070  0.5361E+01  0.2289E+01  0.8392E+02
   8.080  0.5317E+01  0.2287E+01  0.8399E+02
   8.090  0.5273E+01  0.2286E+01  0.8407E+02
   8.100  0.5229E+01  0.2285E+01  0.8414E+02
   8.110  0.5185E+01  0.2284E+01  0.8422E+02
   8.120  0.5142E+01  0.2284E+01  0.8429E+02
   8.130  0.5098E+01  0.2284E+01  0.8436E+02
   8.140  0.5055E+01  0.2285E+01  0.8444E+02
   8.150  0.5012E+01  0.2286E+01  0.8451E+02
   8.160  0.4969E+01  0.2288E+01  0.8458E+02
   8.170  0.4926E+01  0.2291E+01  0.8466E+02
   8.180  0.4883E+01  0.2293E+01  0.8473E+02
   8.190  0.4841E+01  0.2296E+01  0.8480E+02
   8.200  0.4798E+01  0.2300E+01  0.8487E+02
   8.210  0.4756E+01  0.2304E+01  0.8494E+02
   8.220  0.4715E+01  0.2309E+01  0.8501E+02
   8.230  0.4673E+01  0.2314E+01  0.8508E+02
   8.240  0.4632E+01  0.2320E+01  0.8515E+02
   8.250  0.4591E+01  0.2326E+01  0.8522E+02
   8.260  0.4550E+01  0.2333E+01  0.8529E+02
   8.270  0.4509E+01  0.2340E+01  0.8536E+02
   8.280  0.4469E+01  0.2347E+01  0.8542E+02
   8.290  0.4429E+01  0.2355E+01  0.8549E+02
   8.300  0.4390E+01  0.2364E+01  0.8556E+02
   8.310  0.4350E+01  0.2373E+01  0.8563E+02
   8.320  0.4311E+01  0.2382E+01  0.8569E+02
   8.330  0.4273E+01  0.2392E+01  0.8576E+02
   8.340  0.4235E+01  0.2403E+01  0.8583E+02
   8.350  0.4197E+01  0.2414E+01  0.8589E+02
   8.360  0.4159E+01  0.2425E+01  0.8596E+02
   8.370  0.4122E+01  0.2437E+01  0.8602E+02
   8.380  0.4085E+01  0.2450E+01  0.8609E+02
   8.390  0.4049E+01  0.2462E+01  0.8616E+02
   8.400  0.4013E+01  0.2476E+01  0.8622E+02
   8.410  0.3978E+01  0.2490E+01  0.8628E+02
   8.420  0.3943E+01  0.2504E+01  0.8635E+02
   8.430  0.3908E+01  0.2519E+01  0.8641E+02
   8.440  0.3874E+01  0.2534E+01  0.8648E+02
   8.450  0.3840E+01  0.2550E+01  0.8654E+02
   8.460  0.3807E+01  0.2566E+01  0.8661E+02
   8.470  0.3774E+01  0.2583E+01  0.8667E+02
   8.480  0.3742E+01  0.2600E+01  0.8673E+02
   8.490  0.3710E+01  0.2617E+01  0.8680E+02
   8.500  0.3679E+01  0.2635E+01  0.8686E+02
   8.510  0.3648E+01  0.2654E+01  0.8692E+02
   8.520  0.3617E+01  0.2673E+01  0.8698E+02
   8.530  0.3588E+01  0.2692E+01  0.8705E+02
   8.540  0.3558E+01  0.2712E+01  0.8711E+02
   8.550  0.3529E+01  0.2733E+01  0.8717E+02
   8.560  0.3501E+01  0.2753E+01  0.8724E+02
   8.570  0.3473E+01  0.2775E+01  0.8730E+02
   8.580  0.3446E+01  0.2796E+01  0.8736E+02
   8.590  0.3420E+01  0.2819E+01  0.8742E+02
   8.600  0.3393E+01  0.2841E+01  0.8748E+02
   8.610  0.3368E+01  0.2864E+01  0.8755E+02
   8.620  0.3343E+01  0.2888E+01  0.8761E+02
   8.630  0.3318E+01  0.2912E+01  0.8767E+02
   8.640  0.3294E+01  0.2936E+01  0.8773E+02
   8.650  0.3271E+01  0.2961E+01  0.8780E+02
   8.660  0.3248E+01  0.2986E+01  0.8786E+02
   8.670  0.3226E+01  0.3011E+01  0.8792E+02
   8.680  0.3205E+01  0.3037E+01  0.8798E+02
   8.690  0.3184E+01  0.3064E+01  0.8805E+02
   8.700  0.3163E+01  0.3090E+01  0.8811E+02
   8.710  0.3143E+01  0.3118E+01  0.8817E+02
   8.720  0.3124E+01  0.3145E+01  0.8823E+02
   8.730  0.3105E+01  0.3173E+01  0.8830E+02
   8.740  0.3087E+01  0.3202E+01  0.8836E+02
   8.750  0.3069E+01  0.3230E+01  0.8842E+02
   8.760  0.3053E+01  0.3259E+01  0.8849E+02
   8.770  0.3036E+01  0.3289E+01  0.8855E+02
   8.780  0.3020E+01  0.3319E+01  0.8861E+02
   8.790  0.3005E+01  0.3349E+01  0.8868E+02
   8.800  0.2991E+01  0.3380E+01  0.8874E+02
   8.810  0.2977E+01  0.3411E+01  0.8880E+02
   8.820  0.2963E+01  0.3442E+01  0.8887E+02
   8.830  0.2950E+01  0.3474E+01  0.8893E+02
   8.840  0.2938E+01  0.3506E+01  0.8900E+02
   8.850  0.2926E+01  0.3538E+01  0.8906E+02
   8.860  0.2915E+01  0.3570E+01  0.8913E+02
   8.870  0.2905E+01  0.3603E+01  0.8919E+02
   8.880  0.2895E+01  0.3637E+01  0.8926E+02
   8.890  0.2886E+01  0.3670E+01  0.8932E+02
   8.900  0.2877E+01  0.3704E+01  0.8939E+02
   8.910  0.2869E+01  0.3738E+01  0.8945E+02
   8.920  0.2861E+01  0.3773E+01  0.8952E+02
   8.930  0.2854E+01  0.3808E+01  0.8959E+02
   8.940  0.2847E+01  0.3843E+01  0.8965E+02
   8.950  0.2841E+01  0.3878E+01  0.8972E+02
   8.960  0.2836E+01  0.3914E+01  0.8979E+02
   8.970  0.2831E+01  0.3949E+01  0.8986E+02
   8.980  0.2827E+01  0.3985E+01  0.8992E+02
   8.990  0.2823E+01  0.4022E+01  0.8999E+02
   9.000  0.2820E+01  0.4058E+01  0.9006E+02
   9.010  0.2817E+01  0.4095E+01  0.9013E+02
   9.020  0.2815E+01  0.4132E+01  0.9020E+02
   9.030  0.2813E+01  0.4169E+01  0.9027E+02
   9.040  0.2812E+01  0.4207E+01  0.9034E+02
   9.050  0.2811E+01  0.4245E+01  0.9041E+02
   9.060  0.2811E+01  0.4282E+01  0.9048E+02
   9.070  0.2811E+01  0.4320E+01  0.9055E+02
   9.080  0.2812E+01  0.4359E+01  0.9062E+02
   9.090  0.2814E+01  0.4397E+01  0.9070E+02
   9.100  0.2815E+01  0.4436E+01  0.9077E+02
   9.110  0.2818E+01  0.4474E+01  0.9084E+02
   9.120  0.2820E+01  0.4513E+01  0.9092E+02
   9.130  0.2824E+01  0.4552E+01  0.9099E+02
   9.140  0.2827E+01  0.4591E+01  0.9106E+02
   9.150  0.2831E+01  0.4631E+01  0.9114E+02
   9.160  0.2836E+01  0.4670E+01  0.9121E+02
   9.170  0.2841E+01  0.4710E+01  0.9129E+02
   9.180  0.2846E+01  0.4749E+01  0.9136E+02
   9.190  0.2852E+01  0.4789E+01  0.9144E+02
   9.200  0.2858E+01  0.4829E+01  0.9152E+02
   9.210  0.2864E+01  0.4868E+01  0.9159E+02
   9.220  0.2871E+01  0.4908E+01  0.9167E+02
   9.230  0.2879E+01  0.4948E+01  0.9175E+02
   9.240  0.2886E+01  0.4988E+01  0.9183E+02
   9.250  0.2894E+01  0.5028E+01  0.9191E+02
   9.260  0.2903E+01  0.5068E+01  0.9199E+02
   9.270  0.2911E+01  0.5109E+01  0.9207E+02
   9.280  0.2920E+01  0.5149E+01  0.9215E+02
   9.290  0.2930E+01  0.5189E+01  0.9223E+02
   9.300  0.2939E+01  0.5229E+01  0.9231E+02
   9.310  0.2949E+01  0.5269E+01  0.9239E+02
   9.320  0.2959E+01  0.5309E+01  0.9248E+02
   9.330  0.2970E+01  0.5349E+01  0.9256E+02
   9.340  0.2981E+01  0.5389E+01  0.9264E+02
   9.350  0.2992E+01  0.5429E+01  0.9273E+02
   9.360  0.3003E+01  0.5469E+01  0.9281E+02
   9.370  0.3014E+01  0.5509E+01  0.9290E+02
   9.380  0.3026E+01  0.5549E+01  0.9298E+02
   9.390  0.3038E+01  0.5589E+01  0.9307E+02
   9.400  0.3050E+01  0.5628E+01  0.9316E+02
   9.410  0.3063E+01  0.5668E+01  0.9324E+02
   9.420  0.3075E+01  0.5707E+01  0.9333E+02
   9.430  0.3088E+01  0.5747E+01  0.9342E+02
   9.440  0.3101E+01  0.5786E+01  0.9351E+02
   9.450  0.3114E+01  0.5825E+01  0.9360E+02
   9.460  0.3127E+01  0.5864E+01  0.9369E+02
   9.470  0.3140E+01  0.5903E+01  0.9378E+02
   9.480  0.3154E+01  0.5941E+01  0.9387E+02
   9.490  0.3167E+01  0.5980E+01  0.9396E+02
   9.500  0.3181E+01  0.6018E+01  0.9405E+02
   9.510  0.3195E+01  0.6056E+01  0.9415E+02
   9.520  0.3209E+01  0.6094E+01  0.9424E+02
   9.530  0.3223E+01  0.6132E+01  0.9433E+02
   9.540  0.3237E+01  0.6169E+01  0.9443E+02
   9.550  0.3251E+01  0.6207E+01  0.9452E+02
   9.560  0.3265E+01  0.6244E+01  0.9462E+02
   9.570  0.3279E+01  0.6280E+01  0.9471E+02
   9.580  0.3293E+01  0.6317E+01  0.9481E+02
   9.590  0.3307E+01  0.6353E+01  0.9490E+02
   9.600  0.3322E+01  0.6389E+01  0.9500E+02
   9.610  0.3336E+01  0.6425E+01  0.9510E+02
   9.620  0.3350E+01  0.6461E+01  0.9520E+02
   9.630  0.3364E+01  0.6496E+01  0.9530E+02
   9.640  0.3378E+01  0.6531E+01  0.9540E+02
   9.650  0.3392E+01  0.6565E+01  0.9549E+02
   9.660  0.3406E+01  0.6600E+01  0.9559E+02
   9.670  0.3420E+01  0.6634E+01  0.9570E+02
   9.680  0.3434E+01  0.6667E+01  0.9580E+02
   9.690  0.3447E+01  0.6701E+01  0.9590E+02
   9.700  0.3461E+01  0.6734E+01  0.9600E+02
   9.710  0.3475E+01  0.6766E+01  0.9610E+02
   9.720  0.3488E+01  0.6799E+01  0.9621E+02
   9.730  0.3501E+01  0.6831E+01  0.9631E+02
   9.740  0.3514E+01  0.6862E+01  0.9641E+02
   9.750  0.3527E+01  0.6893E+01  0.9652E+02
   9.760  0.3540E+01  0.6924E+01  0.9662E+02
   9.770  0.3553E+01  0.6955E+01  0.9673E+02
   9.780  0.3565E+01  0.6985E+01  0.9683E+02
   9.790  0.3578E+01  0.7015E+01  0.9694E+02
   9.800  0.3590E+01  0.7044E+01  0.9704E+02
   9.810  0.3602E+01  0.7073E+01  0.9715E+02
   9.820  0.3614E+01  0.7101E+01  0.9726E+02
   9.830  0.3625E+01  0.7129E+01  0.9737E+02
   9.840  0.3636E+01  0.7157E+01  0.9747E+02
   9.850  0.3647E+01  0.7184E+01  0.9758E+02
   9.860  0.3658E+01  0.7211E+01  0.9769E+02
   9.870  0.3669E+01  0.7237E+01  0.9780E+02
   9.880  0.3679E+01  0.7263E+01  0.9791E+02
   9.890  0.3689E+01  0.7288E+01  0.9802E+02
   9.900  0.3699E+01  0.7313E+01  0.9813E+02
   9.910  0.3709E+01  0.7337E+01  0.9824E+02
   9.920  0.3718E+01  0.7361E+01  0.9835E+02
   9.930  0.3727E+01  0.7385E+01  0.9846E+02
   9.940  0.3736E+01  0.7408E+01  0.9857E+02
   9.950  0.3744E+01  0.7430E+01  0.9868E+02
   9.960  0.3752E+01  0.7452E+01  0.9880E+02
   9.970  0.3760E+01  0.7474E+01  0.9891E+02
   9.980  0.3767E+01  0.7495E+01  0.9902E+02
   9.990  0.3774E+01  0.7516E+01  0.9913E+02
  10.000  0.3781E+01  0.7536E+01  0.9925E+02
  10.010  0.3788E+01  0.7555E+01  0.9936E+02
  10.020  0.3794E+01  0.7574E+01  0.9947E+02
  10.030  0.3799E+01  0.7593E+01  0.9959E+02
  10.040  0.3805E+01  0.7611E+01  0.9970E+02
  10.050  0.3810E+01  0.7628E+01  0.9982E+02
  10.060  0.3815E+01  0.7645E+01  0.9993E+02
  10.070  0.3819E+01  0.7662E+01  0.1000E+03
  10.080  0.3823E+01  0.7678E+01  0.1002E+03
  10.090  0.3827E+01  0.7693E+01  0.1003E+03
  10.100  0.3830E+01  0.7708E+01  0.1004E+03
  10.110  0.3833E+01  0.7722E+01  0.1005E+03
  10.120  0.3835E+01  0.7736E+01  0.1006E+03
  10.130  0.3837E+01  0.7749E+01  0.1007E+03
  10.140  0.3839E+01  0.7762E+01  0.1009E+03
  10.150  0.3841E+01  0.7774E+01  0.1010E+03
  10.160  0.3841E+01  0.7786E+01  0.1011E+03
  10.170  0.3842E+01  0.7797E+01  0.1012E+03
  10.180  0.3842E+01  0.7808E+01  0.1013E+03
  10.190  0.3842E+01  0.7818E+01  0.1014E+03
  10.200  0.3841E+01  0.7827E+01  0.1016E+03
  10.210  0.3840E+01  0.7836E+01  0.1017E+03
  10.220  0.3839E+01  0.7844E+01  0.1018E+03
  10.230  0.3837E+01  0.7852E+01  0.1019E+03
  10.240  0.3835E+01  0.7860E+01  0.1020E+03
  10.250  0.3832E+01  0.7866E+01  0.1021E+03
  10.260  0.3829E+01  0.7873E+01  0.1023E+03
  10.270  0.3826E+01  0.7878E+01  0.1024E+03
  10.280  0.3822E+01  0.7883E+01  0.1025E+03
  10.290  0.3818E+01  0.7888E+01  0.1026E+03
  10.300  0.3813E+01  0.7892E+01  0.1027E+03
  10.310  0.3808E+01  0.7896E+01  0.1028E+03
  10.320  0.3802E+01  0.7899E+01  0.1030E+03
  10.330  0.3797E+01  0.7901E+01  0.1031E+03
  10.340  0.3790E+01  0.7903E+01  0.1032E+03
  10.350  0.3784E+01  0.7904E+01  0.1033E+03
  10.360  0.3777E+01  0.7905E+01  0.1034E+03
  10.370  0.3769E+01  0.7905E+01  0.1035E+03
  10.380  0.3761E+01  0.7905E+01  0.1037E+03
  10.390  0.3753E+01  0.7905E+01  0.1038E+03
  10.400  0.3745E+01  0.7903E+01  0.1039E+03
  10.410  0.3736E+01  0.7901E+01  0.1040E+03
  10.420  0.3726E+01  0.7899E+01  0.1041E+03
  10.430  0.3716E+01  0.7896E+01  0.1042E+03
  10.440  0.3706E+01  0.7893E+01  0.1044E+03
  10.450  0.3696E+01  0.7889E+01  0.1045E+03
  10.460  0.3685E+01  0.7885E+01  0.1046E+03
  10.470  0.3674E+01  0.7880E+01  0.1047E+03
  10.480  0.3662E+01  0.7874E+01  0.1048E+03
  10.490  0.3650E+01  0.7869E+01  0.1049E+03
  10.500  0.3638E+01  0.7862E+01  0.1050E+03
  10.510  0.3625E+01  0.7855E+01  0.1052E+03
  10.520  0.3612E+01  0.7848E+01  0.1053E+03
  10.530  0.3598E+01  0.7840E+01  0.1054E+03
  10.540  0.3585E+01  0.7832E+01  0.1055E+03
  10.550  0.3571E+01  0.7823E+01  0.1056E+03
  10.560  0.3556E+01  0.7813E+01  0.1057E+03
  10.570  0.3541E+01  0.7804E+01  0.1058E+03
  10.580  0.3526E+01  0.7793E+01  0.1060E+03
  10.590  0.3511E+01  0.7783E+01  0.1061E+03
  10.600  0.3495E+01  0.7772E+01  0.1062E+03
  10.610  0.3479E+01  0.7760E+01  0.1063E+03
  10.620  0.3463E+01  0.7748E+01  0.1064E+03
  10.630  0.3447E+01  0.7735E+01  0.1065E+03
  10.640  0.3430E+01  0.7722E+01  0.1066E+03
  10.650  0.3413E+01  0.7709E+01  0.1067E+03
  10.660  0.3395E+01  0.7695E+01  0.1069E+03
  10.670  0.3378E+01  0.7681E+01  0.1070E+03
  10.680  0.3360E+01  0.7666E+01  0.1071E+03
  10.690  0.3341E+01  0.7651E+01  0.1072E+03
  10.700  0.3323E+01  0.7635E+01  0.1073E+03
  10.710  0.3304E+01  0.7619E+01  0.1074E+03
  10.720  0.3285E+01  0.7603E+01  0.1075E+03
  10.730  0.3266E+01  0.7586E+01  0.1076E+03
  10.740  0.3247E+01  0.7569E+01  0.1077E+03
  10.750  0.3227E+01  0.7551E+01  0.1078E+03
  10.760  0.3208E+01  0.7533E+01  0.1079E+03
  10.770  0.3188E+01  0.7514E+01  0.1081E+03
  10.780  0.3167E+01  0.7496E+01  0.1082E+03
  10.790  0.3147E+01  0.7477E+01  0.1083E+03
  10.800  0.3127E+01  0.7457E+01  0.1084E+03
  10.810  0.3106E+01  0.7437E+01  0.1085E+03
  10.820  0.3085E+01  0.7417E+01  0.1086E+03
  10.830  0.3064E+01  0.7396E+01  0.1087E+03
  10.840  0.3043E+01  0.7375E+01  0.1088E+03
  10.850  0.3022E+01  0.7354E+01  0.1089E+03
  10.860  0.3000E+01  0.7332E+01  0.1090E+03
  10.870  0.2979E+01  0.7310E+01  0.1091E+03
  10.880  0.2957E+01  0.7288E+01  0.1092E+03
  10.890  0.2935E+01  0.7265E+01  0.1093E+03
  10.900  0.2913E+01  0.7242E+01  0.1094E+03
  10.910  0.2891E+01  0.7219E+01  0.1095E+03
  10.920  0.2869E+01  0.7195E+01  0.1096E+03
  10.930  0.2847E+01  0.7171E+01  0.1097E+03
  10.940  0.2825E+01  0.7147E+01  0.1098E+03
  10.950  0.2803E+01  0.7122E+01  0.1099E+03
  10.960  0.2780E+01  0.7097E+01  0.1100E+03
  10.970  0.2758E+01  0.7072E+01  0.1101E+03
  10.980  0.2736E+01  0.7047E+01  0.1102E+03
  10.990  0.2713E+01  0.7021E+01  0.1103E+03
  11.000  0.2691E+01  0.6995E+01  0.1104E+03
  11.010  0.2668E+01  0.6969E+01  0.1105E+03
  11.020  0.2646E+01  0.6942E+01  0.1106E+03
  11.030  0.2623E+01  0.6916E+01  0.1107E+03
  11.040  0.2601E+01  0.6889E+01  0.1108E+03
  11.050  0.2579E+01  0.6861E+01  0.1109E+03
  11.060  0.2556E+01  0.6834E+01  0.1110E+03
  11.070  0.2534E+01  0.6806E+01  0.1111E+03
  11.080  0.2512E+01  0.6778E+01  0.1112E+03
  11.090  0.2489E+01  0.6750E+01  0.1112E+03
  11.100  0.2467E+01  0.6721E+01  0.1113E+03
  11.110  0.2445E+01  0.6693E+01  0.1114E+03
  11.120  0.2423E+01  0.6664E+01  0.1115E+03
  11.130  0.2401E+01  0.6634E+01  0.1116E+03
  11.140  0.2379E+01  0.6605E+01  0.1117E+03
  11.150  0.2357E+01  0.6576E+01  0.1118E+03
  11.160  0.2336E+01  0.6546E+01  0.1119E+03
  11.170  0.2314E+01  0.6516E+01  0.1120E+03
  11.180  0.2293E+01  0.6486E+01  0.1121E+03
  11.190  0.2271E+01  0.6456E+01  0.1121E+03
  11.200  0.2250E+01  0.6425E+01  0.1122E+03
  11.210  0.2229E+01  0.6394E+01  0.1123E+03
  11.220  0.2208E+01  0.6364E+01  0.1124E+03
  11.230  0.2187E+01  0.6333E+01  0.1125E+03
  11.240  0.2167E+01  0.6301E+01  0.1126E+03
  11.250  0.2146E+01  0.6270E+01  0.1127E+03
  11.260  0.2126E+01  0.6239E+01  0.1127E+03
  11.270  0.2106E+01  0.6207E+01  0.1128E+03
  11.280  0.2086E+01  0.6175E+01  0.1129E+03
  11.290  0.2067E+01  0.6144E+01  0.1130E+03
  11.300  0.2047E+01  0.6111E+01  0.1131E+03
  11.310  0.2028E+01  0.6079E+01  0.1131E+03
  11.320  0.2009E+01  0.6047E+01  0.1132E+03
  11.330  0.1990E+01  0.6015E+01  0.1133E+03
  11.340  0.1971E+01  0.5982E+01  0.1134E+03
  11.350  0.1953E+01  0.5950E+01  0.1135E+03
  11.360  0.1935E+01  0.5917E+01  0.1135E+03
  11.370  0.1917E+01  0.5884E+01  0.1136E+03
  11.380  0.1899E+01  0.5851E+01  0.1137E+03
  11.390  0.1882E+01  0.5818E+01  0.1138E+03
  11.400  0.1865E+01  0.5785E+01  0.1139E+03
  11.410  0.1848E+01  0.5752E+01  0.1139E+03
  11.420  0.1831E+01  0.5719E+01  0.1140E+03
  11.430  0.1815E+01  0.5685E+01  0.1141E+03
  11.440  0.1799E+01  0.5652E+01  0.1142E+03
  11.450  0.1783E+01  0.5618E+01  0.1142E+03
  11.460  0.1767E+01  0.5585E+01  0.1143E+03
  11.470  0.1752E+01  0.5551E+01  0.1144E+03
  11.480  0.1737E+01  0.5518E+01  0.1145E+03
  11.490  0.1723E+01  0.5484E+01  0.1145E+03
  11.500  0.1708E+01  0.5450E+01  0.1146E+03
  11.510  0.1694E+01  0.5416E+01  0.1147E+03
  11.520  0.1681E+01  0.5382E+01  0.1147E+03
  11.530  0.1667E+01  0.5349E+01  0.1148E+03
  11.540  0.1654E+01  0.5315E+01  0.1149E+03
  11.550  0.1641E+01  0.5281E+01  0.1149E+03
  11.560  0.1629E+01  0.5247E+01  0.1150E+03
  11.570  0.1617E+01  0.5213E+01  0.1151E+03
  11.580  0.1605E+01  0.5179E+01  0.1152E+03
  11.590  0.1594E+01  0.5145E+01  0.1152E+03
  11.600  0.1583E+01  0.5111E+01  0.1153E+03
  11.610  0.1572E+01  0.5077E+01  0.1154E+03
  11.620  0.1561E+01  0.5043E+01  0.1154E+03
  11.630  0.1551E+01  0.5009E+01  0.1155E+03
  11.640  0.1541E+01  0.4975E+01  0.1155E+03
  11.650  0.1532E+01  0.4941E+01  0.1156E+03
  11.660  0.1523E+01  0.4907E+01  0.1157E+03
  11.670  0.1514E+01  0.4874E+01  0.1157E+03
  11.680  0.1506E+01  0.4840E+01  0.1158E+03
  11.690  0.1498E+01  0.4806E+01  0.1159E+03
  11.700  0.1490E+01  0.4772E+01  0.1159E+03
  11.710  0.1483E+01  0.4738E+01  0.1160E+03
  11.720  0.1476E+01  0.4705E+01  0.1161E+03
  11.730  0.1469E+01  0.4671E+01  0.1161E+03
  11.740  0.1463E+01  0.4638E+01  0.1162E+03
  11.750  0.1457E+01  0.4604E+01  0.1162E+03
  11.760  0.1452E+01  0.4571E+01  0.1163E+03
  11.770  0.1447E+01  0.4538E+01  0.1164E+03
  11.780  0.1442E+01  0.4504E+01  0.1164E+03
  11.790  0.1437E+01  0.4471E+01  0.1165E+03
  11.800  0.1433E+01  0.4438E+01  0.1165E+03
  11.810  0.1430E+01  0.4405E+01  0.1166E+03
  11.820  0.1426E+01  0.4372E+01  0.1167E+03
  11.830  0.1423E+01  0.4339E+01  0.1167E+03
  11.840  0.1421E+01  0.4307E+01  0.1168E+03
  11.850  0.1418E+01  0.4274E+01  0.1168E+03
  11.860  0.1416E+01  0.4242E+01  0.1169E+03
  11.870  0.1415E+01  0.4209E+01  0.1169E+03
  11.880  0.1413E+01  0.4177E+01  0.1170E+03
  11.890  0.1413E+01  0.4145E+01  0.1170E+03
  11.900  0.1412E+01  0.4113E+01  0.1171E+03
  11.910  0.1412E+01  0.4081E+01  0.1172E+03
  11.920  0.1412E+01  0.4049E+01  0.1172E+03
  11.930  0.1413E+01  0.4018E+01  0.1173E+03
  11.940  0.1413E+01  0.3987E+01  0.1173E+03
  11.950  0.1415E+01  0.3955E+01  0.1174E+03
  11.960  0.1416E+01  0.3924E+01  0.1174E+03
  11.970  0.1418E+01  0.3893E+01  0.1175E+03
  11.980  0.1420E+01  0.3863E+01  0.1175E+03
  11.990  0.1423E+01  0.3832E+01  0.1176E+03
  12.000  0.1426E+01  0.3802E+01  0.1176E+03
  12.010  0.1429E+01  0.3771E+01  0.1177E+03
  12.020  0.1432E+01  0.3741E+01  0.1177E+03
  12.030  0.1436E+01  0.3711E+01  0.1178E+03
  12.040  0.1440E+01  0.3682E+01  0.1178E+03
  12.050  0.1445E+01  0.3652E+01  0.1179E+03
  12.060  0.1450E+01  0.3623E+01  0.1179E+03
  12.070  0.1455E+01  0.3594E+01  0.1180E+03
  12.080  0.1460E+01  0.3565E+01  0.1180E+03
  12.090  0.1466E+01  0.3536E+01  0.1181E+03
  12.100  0.1472E+01  0.3508E+01  0.1181E+03
  12.110  0.1478E+01  0.3480E+01  0.1182E+03
  12.120  0.1485E+01  0.3452E+01  0.1182E+03
  12.130  0.1492E+01  0.3424E+01  0.1183E+03
  12.140  0.1499E+01  0.3397E+01  0.1183E+03
  12.150  0.1507E+01  0.3369E+01  0.1184E+03
  12.160  0.1514E+01  0.3342E+01  0.1184E+03
  12.170  0.1523E+01  0.3316E+01  0.1185E+03
  12.180  0.1531E+01  0.3289E+01  0.1185E+03
  12.190  0.1540E+01  0.3263E+01  0.1186E+03
  12.200  0.1548E+01  0.3237E+01  0.1186E+03
  12.210  0.1558E+01  0.3211E+01  0.1187E+03
  12.220  0.1567E+01  0.3185E+01  0.1187E+03
  12.230  0.1577E+01  0.3160E+01  0.1188E+03
  12.240  0.1587E+01  0.3135E+01  0.1188E+03
  12.250  0.1597E+01  0.3111E+01  0.1189E+03
  12.260  0.1607E+01  0.3086E+01  0.1189E+03
  12.270  0.1618E+01  0.3062E+01  0.1190E+03
  12.280  0.1629E+01  0.3038E+01  0.1190E+03
  12.290  0.1640E+01  0.3015E+01  0.1191E+03
  12.300  0.1651E+01  0.2992E+01  0.1191E+03
  12.310  0.1663E+01  0.2969E+01  0.1191E+03
  12.320  0.1674E+01  0.2946E+01  0.1192E+03
  12.330  0.1686E+01  0.2924E+01  0.1192E+03
  12.340  0.1699E+01  0.2902E+01  0.1193E+03
  12.350  0.1711E+01  0.2880E+01  0.1193E+03
  12.360  0.1724E+01  0.2858E+01  0.1194E+03
  12.370  0.1736E+01  0.2837E+01  0.1194E+03
  12.380  0.1749E+01  0.2817E+01  0.1195E+03
  12.390  0.1762E+01  0.2796E+01  0.1195E+03
  12.400  0.1776E+01  0.2776E+01  0.1196E+03
  12.410  0.1789E+01  0.2756E+01  0.1196E+03
  12.420  0.1803E+01  0.2737E+01  0.1197E+03
  12.430  0.1817E+01  0.2718E+01  0.1197E+03
  12.440  0.1831E+01  0.2699E+01  0.1197E+03
  12.450  0.1845E+01  0.2680E+01  0.1198E+03
  12.460  0.1859E+01  0.2662E+01  0.1198E+03
  12.470  0.1874E+01  0.2644E+01  0.1199E+03
  12.480  0.1888E+01  0.2627E+01  0.1199E+03
  12.490  0.1903E+01  0.2610E+01  0.1200E+03
  12.500  0.1918E+01  0.2593E+01  0.1200E+03
  12.510  0.1933E+01  0.2576E+01  0.1201E+03
  12.520  0.1948E+01  0.2560E+01  0.1201E+03
  12.530  0.1963E+01  0.2544E+01  0.1201E+03
  12.540  0.1978E+01  0.2529E+01  0.1202E+03
  12.550  0.1994E+01  0.2514E+01  0.1202E+03
  12.560  0.2009E+01  0.2499E+01  0.1203E+03
  12.570  0.2025E+01  0.2485E+01  0.1203E+03
  12.580  0.2041E+01  0.2471E+01  0.1204E+03
  12.590  0.2056E+01  0.2457E+01  0.1204E+03
  12.600  0.2072E+01  0.2444E+01  0.1205E+03
  12.610  0.2088E+01  0.2431E+01  0.1205E+03
  12.620  0.2104E+01  0.2418E+01  0.1206E+03
  12.630  0.2120E+01  0.2406E+01  0.1206E+03
  12.640  0.2137E+01  0.2394E+01  0.1206E+03
  12.650  0.2153E+01  0.2383E+01  0.1207E+03
  12.660  0.2169E+01  0.2371E+01  0.1207E+03
  12.670  0.2185E+01  0.2361E+01  0.1208E+03
  12.680  0.2202E+01  0.2350E+01  0.1208E+03
  12.690  0.2218E+01  0.2340E+01  0.1209E+03
  12.700  0.2234E+01  0.2330E+01  0.1209E+03
  12.710  0.2251E+01  0.2321E+01  0.1210E+03
  12.720  0.2267E+01  0.2312E+01  0.1210E+03
  12.730  0.2284E+01  0.2303E+01  0.1211E+03
  12.740  0.2300E+01  0.2295E+01  0.1211E+03
  12.750  0.2317E+01  0.2287E+01  0.1211E+03
  12.760  0.2334E+01  0.2279E+01  0.1212E+03
  12.770  0.2350E+01  0.2272E+01  0.1212E+03
  12.780  0.2367E+01  0.2265E+01  0.1213E+03
  12.790  0.2383E+01  0.2258E+01  0.1213E+03
  12.800  0.2400E+01  0.2252E+01  0.1214E+03
  12.810  0.2416E+01  0.2246E+01  0.1214E+03
  12.820  0.2433E+01  0.2240E+01  0.1215E+03
  12.830  0.2449E+01  0.2235E+01  0.1215E+03
  12.840  0.2466E+01  0.2230E+01  0.1216E+03
  12.850  0.2482E+01  0.2226E+01  0.1216E+03
  12.860  0.2498E+01  0.2221E+01  0.1217E+03
  12.870  0.2515E+01  0.2217E+01  0.1217E+03
  12.880  0.2531E+01  0.2214E+01  0.1218E+03
  12.890  0.2547E+01  0.2211E+01  0.1218E+03
  12.900  0.2564E+01  0.2208E+01  0.1219E+03
  12.910  0.2580E+01  0.2205E+01  0.1219E+03
  12.920  0.2596E+01  0.2203E+01  0.1219E+03
  12.930  0.2612E+01  0.2201E+01  0.1220E+03
  12.940  0.2628E+01  0.2199E+01  0.1220E+03
  12.950  0.2644E+01  0.2198E+01  0.1221E+03
  12.960  0.2660E+01  0.2197E+01  0.1221E+03
  12.970  0.2675E+01  0.2196E+01  0.1222E+03
  12.980  0.2691E+01  0.2196E+01  0.1222E+03
  12.990  0.2707E+01  0.2196E+01  0.1223E+03
  13.000  0.2722E+01  0.2196E+01  0.1223E+03
  13.010  0.2737E+01  0.2196E+01  0.1224E+03
  13.020  0.2753E+01  0.2197E+01  0.1224E+03
  13.030  0.2768E+01  0.2198E+01  0.1225E+03
  13.040  0.2783E+01  0.2199E+01  0.1225E+03
  13.050  0.2798E+01  0.2201E+01  0.1226E+03
  13.060  0.2813E+01  0.2203E+01  0.1226E+03
  13.070  0.2828E+01  0.2205E+01  0.1227E+03
  13.080  0.2843E+01  0.2208E+01  0.1227E+03
  13.090  0.2857E+01  0.2210E+01  0.1228E+03
  13.100  0.2872E+01  0.2213E+01  0.1228E+03
  13.110  0.2886E+01  0.2216E+01  0.1229E+03
  13.120  0.2901E+01  0.2220E+01  0.1229E+03
  13.130  0.2915E+01  0.2224E+01  0.1230E+03
  13.140  0.2929E+01  0.2228E+01  0.1230E+03
  13.150  0.2943E+01  0.2232E+01  0.1231E+03
  13.160  0.2957E+01  0.2236E+01  0.1231E+03
  13.170  0.2970E+01  0.2241E+01  0.1232E+03
  13.180  0.2984E+01  0.2246E+01  0.1233E+03
  13.190  0.2997E+01  0.2251E+01  0.1233E+03
  13.200  0.3010E+01  0.2256E+01  0.1234E+03
  13.210  0.3023E+01  0.2262E+01  0.1234E+03
  13.220  0.3036E+01  0.2268E+01  0.1235E+03
  13.230  0.3049E+01  0.2274E+01  0.1235E+03
  13.240  0.3062E+01  0.2280E+01  0.1236E+03
  13.250  0.3075E+01  0.2286E+01  0.1236E+03
  13.260  0.3087E+01  0.2293E+01  0.1237E+03
  13.270  0.3099E+01  0.2300E+01  0.1237E+03
  13.280  0.3111E+01  0.2307E+01  0.1238E+03
  13.290  0.3123E+01  0.2314E+01  0.1238E+03
  13.300  0.3135E+01  0.2321E+01  0.1239E+03
  13.310  0.3147E+01  0.2329E+01  0.1239E+03
  13.320  0.3158E+01  0.2336E+01  0.1240E+03
  13.330  0.3170E+01  0.2344E+01  0.1241E+03
  13.340  0.3181E+01  0.2352E+01  0.1241E+03
  13.350  0.3192E+01  0.2360E+01  0.1242E+03
  13.360  0.3203E+01  0.2369E+01  0.1242E+03
  13.370  0.3214E+01  0.2377E+01  0.1243E+03
  13.380  0.3224E+01  0.2386E+01  0.1243E+03
  13.390  0.3235E+01  0.2394E+01  0.1244E+03
  13.400  0.3245E+01  0.2403E+01  0.1244E+03
  13.410  0.3255E+01  0.2412E+01  0.1245E+03
  13.420  0.3265E+01  0.2421E+01  0.1246E+03
  13.430  0.3275E+01  0.2430E+01  0.1246E+03
  13.440  0.3285E+01  0.2440E+01  0.1247E+03
  13.450  0.3294E+01  0.2449E+01  0.1247E+03
  13.460  0.3303E+01  0.2459E+01  0.1248E+03
  13.470  0.3313E+01  0.2468E+01  0.1249E+03
  13.480  0.3322E+01  0.2478E+01  0.1249E+03
  13.490  0.3331E+01  0.2488E+01  0.1250E+03
  13.500  0.3339E+01  0.2498E+01  0.1250E+03
  13.510  0.3348E+01  0.2508E+01  0.1251E+03
  13.520  0.3356E+01  0.2518E+01  0.1251E+03
  13.530  0.3364E+01  0.2528E+01  0.1252E+03
  13.540  0.3372E+01  0.2538E+01  0.1253E+03
  13.550  0.3380E+01  0.2549E+01  0.1253E+03
  13.560  0.3388E+01  0.2559E+01  0.1254E+03
  13.570  0.3396E+01  0.2569E+01  0.1254E+03
  13.580  0.3403E+01  0.2580E+01  0.1255E+03
  13.590  0.3411E+01  0.2590E+01  0.1256E+03
  13.600  0.3418E+01  0.2601E+01  0.1256E+03
  13.610  0.3425E+01  0.2611E+01  0.1257E+03
  13.620  0.3432E+01  0.2622E+01  0.1257E+03
  13.630  0.3438E+01  0.2633E+01  0.1258E+03
  13.640  0.3445E+01  0.2643E+01  0.1259E+03
  13.650  0.3451E+01  0.2654E+01  0.1259E+03
  13.660  0.3457E+01  0.2665E+01  0.1260E+03
  13.670  0.3464E+01  0.2676E+01  0.1260E+03
  13.680  0.3469E+01  0.2686E+01  0.1261E+03
  13.690  0.3475E+01  0.2697E+01  0.1262E+03
  13.700  0.3481E+01  0.2708E+01  0.1262E+03
  13.710  0.3487E+01  0.2719E+01  0.1263E+03
  13.720  0.3492E+01  0.2730E+01  0.1264E+03
  13.730  0.3497E+01  0.2740E+01  0.1264E+03
  13.740  0.3502E+01  0.2751E+01  0.1265E+03
  13.750  0.3507E+01  0.2762E+01  0.1265E+03
  13.760  0.3512E+01  0.2773E+01  0.1266E+03
  13.770  0.3517E+01  0.2784E+01  0.1267E+03
  13.780  0.3521E+01  0.2794E+01  0.1267E+03
  13.790  0.3526E+01  0.2805E+01  0.1268E+03
  13.800  0.3530E+01  0.2816E+01  0.1269E+03
  13.810  0.3534E+01  0.2826E+01  0.1269E+03
  13.820  0.3539E+01  0.2837E+01  0.1270E+03
  13.830  0.3543E+01  0.2848E+01  0.1270E+03
  13.840  0.3546E+01  0.2858E+01  0.1271E+03
  13.850  0.3550E+01  0.2869E+01  0.1272E+03
  13.860  0.3554E+01  0.2879E+01  0.1272E+03
  13.870  0.3557E+01  0.2890E+01  0.1273E+03
  13.880  0.3561E+01  0.2900E+01  0.1274E+03
  13.890  0.3564E+01  0.2911E+01  0.1274E+03
  13.900  0.3567E+01  0.2921E+01  0.1275E+03
  13.910  0.3570E+01  0.2931E+01  0.1276E+03
  13.920  0.3573E+01  0.2942E+01  0.1276E+03
  13.930  0.3576E+01  0.2952E+01  0.1277E+03
  13.940  0.3579E+01  0.2962E+01  0.1278E+03
  13.950  0.3581E+01  0.2972E+01  0.1278E+03
  13.960  0.3584E+01  0.2982E+01  0.1279E+03
  13.970  0.3587E+01  0.2992E+01  0.1280E+03
  13.980  0.3589E+01  0.3002E+01  0.1280E+03
  13.990  0.3591E+01  0.3012E+01  0.1281E+03
  14.000  0.3593E+01  0.3021E+01  0.1282E+03
  14.010  0.3596E+01  0.3031E+01  0.1282E+03
  14.020  0.3598E+01  0.3041E+01  0.1283E+03
  14.030  0.3600E+01  0.3050E+01  0.1284E+03
  14.040  0.3602E+01  0.3060E+01  0.1284E+03
  14.050  0.3603E+01  0.3069E+01  0.1285E+03
  14.060  0.3605E+01  0.3079E+01  0.1286E+03
  14.070  0.3607E+01  0.3088E+01  0.1286E+03
  14.080  0.3608E+01  0.3097E+01  0.1287E+03
  14.090  0.3610E+01  0.3106E+01  0.1288E+03
  14.100  0.3612E+01  0.3115E+01  0.1288E+03
  14.110  0.3613E+01  0.3124E+01  0.1289E+03
  14.120  0.3614E+01  0.3133E+01  0.1290E+03
  14.130  0.3616E+01  0.3142E+01  0.1290E+03
  14.140  0.3617E+01  0.3150E+01  0.1291E+03
  14.150  0.3618E+01  0.3159E+01  0.1292E+03
  14.160  0.3619E+01  0.3168E+01  0.1292E+03
  14.170  0.3621E+01  0.3176E+01  0.1293E+03
  14.180  0.3622E+01  0.3184E+01  0.1294E+03
  14.190  0.3623E+01  0.3193E+01  0.1294E+03
  14.200  0.3624E+01  0.3201E+01  0.1295E+03
  14.210  0.3625E+01  0.3209E+01  0.1296E+03
  14.220  0.3626E+01  0.3217E+01  0.1296E+03
  14.230  0.3627E+01  0.3225E+01  0.1297E+03
  14.240  0.3627E+01  0.3233E+01  0.1298E+03
  14.250  0.3628E+01  0.3241E+01  0.1298E+03
  14.260  0.3629E+01  0.3248E+01  0.1299E+03
  14.270  0.3630E+01  0.3256E+01  0.1300E+03
  14.280  0.3631E+01  0.3263E+01  0.1301E+03
  14.290  0.3632E+01  0.3271E+01  0.1301E+03
  14.300  0.3632E+01  0.3278E+01  0.1302E+03
  14.310  0.3633E+01  0.3286E+01  0.1303E+03
  14.320  0.3634E+01  0.3293E+01  0.1303E+03
  14.330  0.3634E+01  0.3300E+01  0.1304E+03
  14.340  0.3635E+01  0.3307E+01  0.1305E+03
  14.350  0.3636E+01  0.3314E+01  0.1305E+03
  14.360  0.3637E+01  0.3321E+01  0.1306E+03
  14.370  0.3637E+01  0.3327E+01  0.1307E+03
  14.380  0.3638E+01  0.3334E+01  0.1307E+03
  14.390  0.3639E+01  0.3341E+01  0.1308E+03
  14.400  0.3639E+01  0.3347E+01  0.1309E+03
  14.410  0.3640E+01  0.3354E+01  0.1310E+03
  14.420  0.3641E+01  0.3360E+01  0.1310E+03
  14.430  0.3642E+01  0.3366E+01  0.1311E+03
  14.440  0.3642E+01  0.3372E+01  0.1312E+03
  14.450  0.3643E+01  0.3378E+01  0.1312E+03
  14.460  0.3644E+01  0.3384E+01  0.1313E+03
  14.470  0.3645E+01  0.3390E+01  0.1314E+03
  14.480  0.3646E+01  0.3396E+01  0.1314E+03
  14.490  0.3646E+01  0.3402E+01  0.1315E+03
  14.500  0.3647E+01  0.3408E+01  0.1316E+03
  14.510  0.3648E+01  0.3414E+01  0.1317E+03
  14.520  0.3649E+01  0.3419E+01  0.1317E+03
  14.530  0.3650E+01  0.3425E+01  0.1318E+03
  14.540  0.3651E+01  0.3430E+01  0.1319E+03
  14.550  0.3652E+01  0.3436E+01  0.1319E+03
  14.560  0.3653E+01  0.3441E+01  0.1320E+03
  14.570  0.3654E+01  0.3446E+01  0.1321E+03
  14.580  0.3655E+01  0.3451E+01  0.1322E+03
  14.590  0.3656E+01  0.3456E+01  0.1322E+03
  14.600  0.3658E+01  0.3462E+01  0.1323E+03
  14.610  0.3659E+01  0.3467E+01  0.1324E+03
  14.620  0.3660E+01  0.3471E+01  0.1324E+03
  14.630  0.3661E+01  0.3476E+01  0.1325E+03
  14.640  0.3663E+01  0.3481E+01  0.1326E+03
  14.650  0.3664E+01  0.3486E+01  0.1327E+03
  14.660  0.3666E+01  0.3491E+01  0.1327E+03
  14.670  0.3667E+01  0.3495E+01  0.1328E+03
  14.680  0.3669E+01  0.3500E+01  0.1329E+03
  14.690  0.3670E+01  0.3505E+01  0.1329E+03
  14.700  0.3672E+01  0.3509E+01  0.1330E+03
  14.710  0.3673E+01  0.3514E+01  0.1331E+03
  14.720  0.3675E+01  0.3518E+01  0.1332E+03
  14.730  0.3677E+01  0.3522E+01  0.1332E+03
  14.740  0.3679E+01  0.3527E+01  0.1333E+03
  14.750  0.3681E+01  0.3531E+01  0.1334E+03
  14.760  0.3683E+01  0.3535E+01  0.1334E+03
  14.770  0.3685E+01  0.3540E+01  0.1335E+03
  14.780  0.3687E+01  0.3544E+01  0.1336E+03
  14.790  0.3689E+01  0.3548E+01  0.1337E+03
  14.800  0.3691E+01  0.3552E+01  0.1337E+03
  14.810  0.3693E+01  0.3556E+01  0.1338E+03
  14.820  0.3695E+01  0.3560E+01  0.1339E+03
  14.830  0.3698E+01  0.3564E+01  0.1340E+03
  14.840  0.3700E+01  0.3568E+01  0.1340E+03
  14.850  0.3703E+01  0.3572E+01  0.1341E+03
  14.860  0.3705E+01  0.3576E+01  0.1342E+03
  14.870  0.3708E+01  0.3580E+01  0.1342E+03
  14.880  0.3710E+01  0.3584E+01  0.1343E+03
  14.890  0.3713E+01  0.3588E+01  0.1344E+03
  14.900  0.3716E+01  0.3592E+01  0.1345E+03
  14.910  0.3719E+01  0.3596E+01  0.1345E+03
  14.920  0.3722E+01  0.3599E+01  0.1346E+03
  14.930  0.3725E+01  0.3603E+01  0.1347E+03
  14.940  0.3728E+01  0.3607E+01  0.1348E+03
  14.950  0.3731E+01  0.3611E+01  0.1348E+03
  14.960  0.3734E+01  0.3615E+01  0.1349E+03
  14.970  0.3737E+01  0.3619E+01  0.1350E+03
  14.980  0.3740E+01  0.3622E+01  0.1350E+03
  14.990  0.3744E+01  0.3626E+01  0.1351E+03
  15.000  0.3747E+01  0.3630E+01  0.1352E+03
  15.010  0.3750E+01  0.3634E+01  0.1353E+03
  15.020  0.3754E+01  0.3637E+01  0.1353E+03
  15.030  0.3757E+01  0.3641E+01  0.1354E+03
  15.040  0.3761E+01  0.3645E+01  0.1355E+03
  15.050  0.3765E+01  0.3649E+01  0.1356E+03
  15.060  0.3768E+01  0.3653E+01  0.1356E+03
  15.070  0.3772E+01  0.3656E+01  0.1357E+03
  15.080  0.3776E+01  0.3660E+01  0.1358E+03
  15.090  0.3780E+01  0.3664E+01  0.1359E+03
  15.100  0.3784E+01  0.3668E+01  0.1359E+03
  15.110  0.3788E+01  0.3672E+01  0.1360E+03
  15.120  0.3792E+01  0.3676E+01  0.1361E+03
  15.130  0.3796E+01  0.3680E+01  0.1362E+03
  15.140  0.3801E+01  0.3684E+01  0.1362E+03
  15.150  0.3805E+01  0.3687E+01  0.1363E+03
  15.160  0.3809E+01  0.3691E+01  0.1364E+03
  15.170  0.3814E+01  0.3695E+01  0.1365E+03
  15.180  0.3818E+01  0.3699E+01  0.1365E+03
  15.190  0.3822E+01  0.3703E+01  0.1366E+03
  15.200  0.3827E+01  0.3708E+01  0.1367E+03
  15.210  0.3832E+01  0.3712E+01  0.1368E+03
  15.220  0.3836E+01  0.3716E+01  0.1368E+03
  15.230  0.3841E+01  0.3720E+01  0.1369E+03
  15.240  0.3846E+01  0.3724E+01  0.1370E+03
  15.250  0.3850E+01  0.3728E+01  0.1371E+03
  15.260  0.3855E+01  0.3733E+01  0.1371E+03
  15.270  0.3860E+01  0.3737E+01  0.1372E+03
  15.280  0.3865E+01  0.3741E+01  0.1373E+03
  15.290  0.3870E+01  0.3745E+01  0.1374E+03
  15.300  0.3875E+01  0.3750E+01  0.1374E+03
  15.310  0.3880E+01  0.3754E+01  0.1375E+03
  15.320  0.3885E+01  0.3759E+01  0.1376E+03
  15.330  0.3891E+01  0.3763E+01  0.1377E+03
  15.340  0.3896E+01  0.3768E+01  0.1378E+03
  15.350  0.3901E+01  0.3772E+01  0.1378E+03
  15.360  0.3906E+01  0.3777E+01  0.1379E+03
  15.370  0.3912E+01  0.3782E+01  0.1380E+03
  15.380  0.3917E+01  0.3786E+01  0.1381E+03
  15.390  0.3922E+01  0.3791E+01  0.1381E+03
  15.400  0.3928E+01  0.3796E+01  0.1382E+03
  15.410  0.3933E+01  0.3801E+01  0.1383E+03
  15.420  0.3939E+01  0.3806E+01  0.1384E+03
  15.430  0.3944E+01  0.3811E+01  0.1384E+03
  15.440  0.3950E+01  0.3816E+01  0.1385E+03
  15.450  0.3956E+01  0.3821E+01  0.1386E+03
  15.460  0.3961E+01  0.3826E+01  0.1387E+03
  15.470  0.3967E+01  0.3831E+01  0.1388E+03
  15.480  0.3973E+01  0.3836E+01  0.1388E+03
  15.490  0.3978E+01  0.3841E+01  0.1389E+03
  15.500  0.3984E+01  0.3847E+01  0.1390E+03
  15.510  0.3990E+01  0.3852E+01  0.1391E+03
  15.520  0.3996E+01  0.3857E+01  0.1391E+03
  15.530  0.4002E+01  0.3863E+01  0.1392E+03
  15.540  0.4007E+01  0.3868E+01  0.1393E+03
  15.550  0.4013E+01  0.3874E+01  0.1394E+03
  15.560  0.4019E+01  0.3880E+01  0.1395E+03
  15.570  0.4025E+01  0.3885E+01  0.1395E+03
  15.580  0.4031E+01  0.3891E+01  0.1396E+03
  15.590  0.4037E+01  0.3897E+01  0.1397E+03
  15.600  0.4043E+01  0.3903E+01  0.1398E+03
  15.610  0.4049E+01  0.3908E+01  0.1399E+03
  15.620  0.4055E+01  0.3914E+01  0.1399E+03
  15.630  0.4061E+01  0.3920E+01  0.1400E+03
  15.640  0.4067E+01  0.3926E+01  0.1401E+03
  15.650  0.4073E+01  0.3932E+01  0.1402E+03
  15.660  0.4079E+01  0.3939E+01  0.1403E+03
  15.670  0.4085E+01  0.3945E+01  0.1403E+03
  15.680  0.4091E+01  0.3951E+01  0.1404E+03
  15.690  0.4097E+01  0.3957E+01  0.1405E+03
  15.700  0.4103E+01  0.3964E+01  0.1406E+03
  15.710  0.4109E+01  0.3970E+01  0.1407E+03
  15.720  0.4115E+01  0.3976E+01  0.1407E+03
  15.730  0.4121E+01  0.3983E+01  0.1408E+03
  15.740  0.4127E+01  0.3989E+01  0.1409E+03
  15.750  0.4133E+01  0.3996E+01  0.1410E+03
  15.760  0.4139E+01  0.4003E+01  0.1411E+03
  15.770  0.4145E+01  0.4009E+01  0.1411E+03
  15.780  0.4152E+01  0.4016E+01  0.1412E+03
  15.790  0.4158E+01  0.4023E+01  0.1413E+03
  15.800  0.4164E+01  0.4030E+01  0.1414E+03
  15.810  0.4170E+01  0.4036E+01  0.1415E+03
  15.820  0.4176E+01  0.4043E+01  0.1416E+03
  15.830  0.4182E+01  0.4050E+01  0.1416E+03
  15.840  0.4188E+01  0.4057E+01  0.1417E+03
  15.850  0.4194E+01  0.4064E+01  0.1418E+03
  15.860  0.4200E+01  0.4071E+01  0.1419E+03
  15.870  0.4206E+01  0.4078E+01  0.1420E+03
  15.880  0.4211E+01  0.4085E+01  0.1421E+03
  15.890  0.4217E+01  0.4093E+01  0.1421E+03
  15.900  0.4223E+01  0.4100E+01  0.1422E+03
  15.910  0.4229E+01  0.4107E+01  0.1423E+03
  15.920  0.4235E+01  0.4114E+01  0.1424E+03
  15.930  0.4241E+01  0.4121E+01  0.1425E+03
  15.940  0.4247E+01  0.4129E+01  0.1426E+03
  15.950  0.4252E+01  0.4136E+01  0.1426E+03
  15.960  0.4258E+01  0.4143E+01  0.1427E+03
  15.970  0.4264E+01  0.4151E+01  0.1428E+03
  15.980  0.4270E+01  0.4158E+01  0.1429E+03
  15.990  0.4275E+01  0.4166E+01  0.1430E+03
  16.000  0.4281E+01  0.4173E+01  0.1431E+03
  16.010  0.4287E+01  0.4181E+01  0.1431E+03
  16.020  0.4292E+01  0.4188E+01  0.1432E+03
  16.030  0.4298E+01  0.4196E+01  0.1433E+03
  16.040  0.4303E+01  0.4203E+01  0.1434E+03
  16.050  0.4309E+01  0.4211E+01  0.1435E+03
  16.060  0.4314E+01  0.4218E+01  0.1436E+03
  16.070  0.4320E+01  0.4226E+01  0.1437E+03
  16.080  0.4325E+01  0.4233E+01  0.1437E+03
  16.090  0.4331E+01  0.4241E+01  0.1438E+03
  16.100  0.4336E+01  0.4248E+01  0.1439E+03
  16.110  0.4341E+01  0.4256E+01  0.1440E+03
  16.120  0.4347E+01  0.4264E+01  0.1441E+03
  16.130  0.4352E+01  0.4271E+01  0.1442E+03
  16.140  0.4357E+01  0.4279E+01  0.1443E+03
  16.150  0.4362E+01  0.4286E+01  0.1443E+03
  16.160  0.4367E+01  0.4294E+01  0.1444E+03
  16.170  0.4372E+01  0.4301E+01  0.1445E+03
  16.180  0.4377E+01  0.4309E+01  0.1446E+03
  16.190  0.4382E+01  0.4317E+01  0.1447E+03
  16.200  0.4387E+01  0.4324E+01  0.1448E+03
  16.210  0.4392E+01  0.4332E+01  0.1449E+03
  16.220  0.4397E+01  0.4339E+01  0.1450E+03
  16.230  0.4402E+01  0.4347E+01  0.1450E+03
  16.240  0.4406E+01  0.4354E+01  0.1451E+03
  16.250  0.4411E+01  0.4361E+01  0.1452E+03
  16.260  0.4416E+01  0.4369E+01  0.1453E+03
  16.270  0.4420E+01  0.4376E+01  0.1454E+03
  16.280  0.4425E+01  0.4384E+01  0.1455E+03
  16.290  0.4429E+01  0.4391E+01  0.1456E+03
  16.300  0.4434E+01  0.4398E+01  0.1457E+03
  16.310  0.4438E+01  0.4406E+01  0.1457E+03
  16.320  0.4443E+01  0.4413E+01  0.1458E+03
  16.330  0.4447E+01  0.4420E+01  0.1459E+03
  16.340  0.4451E+01  0.4427E+01  0.1460E+03
  16.350  0.4455E+01  0.4434E+01  0.1461E+03
  16.360  0.4459E+01  0.4441E+01  0.1462E+03
  16.370  0.4463E+01  0.4448E+01  0.1463E+03
  16.380  0.4467E+01  0.4455E+01  0.1464E+03
  16.390  0.4471E+01  0.4462E+01  0.1465E+03
  16.400  0.4475E+01  0.4469E+01  0.1465E+03
  16.410  0.4479E+01  0.4476E+01  0.1466E+03
  16.420  0.4483E+01  0.4483E+01  0.1467E+03
  16.430  0.4487E+01  0.4490E+01  0.1468E+03
  16.440  0.4490E+01  0.4496E+01  0.1469E+03
  16.450  0.4494E+01  0.4503E+01  0.1470E+03
  16.460  0.4498E+01  0.4510E+01  0.1471E+03
  16.470  0.4501E+01  0.4516E+01  0.1472E+03
  16.480  0.4505E+01  0.4523E+01  0.1473E+03
  16.490  0.4508E+01  0.4529E+01  0.1474E+03
  16.500  0.4511E+01  0.4535E+01  0.1474E+03
  16.510  0.4515E+01  0.4542E+01  0.1475E+03
  16.520  0.4518E+01  0.4548E+01  0.1476E+03
  16.530  0.4521E+01  0.4554E+01  0.1477E+03
  16.540  0.4524E+01  0.4560E+01  0.1478E+03
  16.550  0.4527E+01  0.4566E+01  0.1479E+03
  16.560  0.4530E+01  0.4572E+01  0.1480E+03
  16.570  0.4533E+01  0.4578E+01  0.1481E+03
  16.580  0.4536E+01  0.4584E+01  0.1482E+03
  16.590  0.4539E+01  0.4589E+01  0.1483E+03
  16.600  0.4541E+01  0.4595E+01  0.1484E+03
  16.610  0.4544E+01  0.4601E+01  0.1484E+03
  16.620  0.4547E+01  0.4606E+01  0.1485E+03
  16.630  0.4549E+01  0.4611E+01  0.1486E+03
  16.640  0.4552E+01  0.4617E+01  0.1487E+03
  16.650  0.4554E+01  0.4622E+01  0.1488E+03
  16.660  0.4557E+01  0.4627E+01  0.1489E+03
  16.670  0.4559E+01  0.4632E+01  0.1490E+03
  16.680  0.4561E+01  0.4637E+01  0.1491E+03
  16.690  0.4563E+01  0.4642E+01  0.1492E+03
  16.700  0.4566E+01  0.4647E+01  0.1493E+03
  16.710  0.4568E+01  0.4652E+01  0.1494E+03
  16.720  0.4570E+01  0.4656E+01  0.1495E+03
  16.730  0.4572E+01  0.4661E+01  0.1496E+03
  16.740  0.4573E+01  0.4665E+01  0.1496E+03
  16.750  0.4575E+01  0.4670E+01  0.1497E+03
  16.760  0.4577E+01  0.4674E+01  0.1498E+03
  16.770  0.4579E+01  0.4678E+01  0.1499E+03
  16.780  0.4580E+01  0.4682E+01  0.1500E+03
  16.790  0.4582E+01  0.4686E+01  0.1501E+03
  16.800  0.4584E+01  0.4690E+01  0.1502E+03
  16.810  0.4585E+01  0.4694E+01  0.1503E+03
  16.820  0.4586E+01  0.4697E+01  0.1504E+03
  16.830  0.4588E+01  0.4701E+01  0.1505E+03
  16.840  0.4589E+01  0.4704E+01  0.1506E+03
  16.850  0.4590E+01  0.4708E+01  0.1507E+03
  16.860  0.4591E+01  0.4711E+01  0.1508E+03
  16.870  0.4593E+01  0.4714E+01  0.1508E+03
  16.880  0.4594E+01  0.4718E+01  0.1509E+03
  16.890  0.4595E+01  0.4721E+01  0.1510E+03
  16.900  0.4595E+01  0.4724E+01  0.1511E+03
  16.910  0.4596E+01  0.4726E+01  0.1512E+03
  16.920  0.4597E+01  0.4729E+01  0.1513E+03
  16.930  0.4598E+01  0.4732E+01  0.1514E+03
  16.940  0.4599E+01  0.4734E+01  0.1515E+03
  16.950  0.4599E+01  0.4737E+01  0.1516E+03
  16.960  0.4600E+01  0.4739E+01  0.1517E+03
  16.970  0.4600E+01  0.4741E+01  0.1518E+03
  16.980  0.4601E+01  0.4743E+01  0.1519E+03
  16.990  0.4601E+01  0.4746E+01  0.1520E+03
  17.000  0.4602E+01  0.4748E+01  0.1521E+03
  17.010  0.4602E+01  0.4749E+01  0.1522E+03
  17.020  0.4602E+01  0.4751E+01  0.1522E+03
  17.030  0.4602E+01  0.4753E+01  0.1523E+03
  17.040  0.4602E+01  0.4754E+01  0.1524E+03
  17.050  0.4602E+01  0.4756E+01  0.1525E+03
  17.060  0.4602E+01  0.4757E+01  0.1526E+03
  17.070  0.4602E+01  0.4759E+01  0.1527E+03
  17.080  0.4602E+01  0.4760E+01  0.1528E+03
  17.090  0.4602E+01  0.4761E+01  0.1529E+03
  17.100  0.4602E+01  0.4762E+01  0.1530E+03
  17.110  0.4602E+01  0.4763E+01  0.1531E+03
  17.120  0.4601E+01  0.4764E+01  0.1532E+03
  17.130  0.4601E+01  0.4765E+01  0.1533E+03
  17.140  0.4601E+01  0.4765E+01  0.1534E+03
  17.150  0.4600E+01  0.4766E+01  0.1535E+03
  17.160  0.4600E+01  0.4766E+01  0.1536E+03
  17.170  0.4599E+01  0.4767E+01  0.1537E+03
  17.180  0.4598E+01  0.4767E+01  0.1537E+03
  17.190  0.4598E+01  0.4767E+01  0.1538E+03
  17.200  0.4597E+01  0.4768E+01  0.1539E+03
  17.210  0.4596E+01  0.4768E+01  0.1540E+03
  17.220  0.4595E+01  0.4768E+01  0.1541E+03
  17.230  0.4594E+01  0.4768E+01  0.1542E+03
  17.240  0.4593E+01  0.4767E+01  0.1543E+03
  17.250  0.4592E+01  0.4767E+01  0.1544E+03
  17.260  0.4591E+01  0.4767E+01  0.1545E+03
  17.270  0.4590E+01  0.4767E+01  0.1546E+03
  17.280  0.4589E+01  0.4766E+01  0.1547E+03
  17.290  0.4588E+01  0.4766E+01  0.1548E+03
  17.300  0.4587E+01  0.4765E+01  0.1549E+03
  17.310  0.4585E+01  0.4764E+01  0.1550E+03
  17.320  0.4584E+01  0.4763E+01  0.1551E+03
  17.330  0.4583E+01  0.4763E+01  0.1552E+03
  17.340  0.4581E+01  0.4762E+01  0.1552E+03
  17.350  0.4580E+01  0.4761E+01  0.1553E+03
  17.360  0.4578E+01  0.4760E+01  0.1554E+03
  17.370  0.4577E+01  0.4759E+01  0.1555E+03
  17.380  0.4575E+01  0.4758E+01  0.1556E+03
  17.390  0.4573E+01  0.4756E+01  0.1557E+03
  17.400  0.4571E+01  0.4755E+01  0.1558E+03
  17.410  0.4570E+01  0.4754E+01  0.1559E+03
  17.420  0.4568E+01  0.4752E+01  0.1560E+03
  17.430  0.4566E+01  0.4751E+01  0.1561E+03
  17.440  0.4564E+01  0.4749E+01  0.1562E+03
  17.450  0.4562E+01  0.4748E+01  0.1563E+03
  17.460  0.4560E+01  0.4746E+01  0.1564E+03
  17.470  0.4558E+01  0.4744E+01  0.1565E+03
  17.480  0.4556E+01  0.4743E+01  0.1565E+03
  17.490  0.4553E+01  0.4741E+01  0.1566E+03
  17.500  0.4551E+01  0.4739E+01  0.1567E+03
  17.510  0.4549E+01  0.4737E+01  0.1568E+03
  17.520  0.4546E+01  0.4735E+01  0.1569E+03
  17.530  0.4544E+01  0.4733E+01  0.1570E+03
  17.540  0.4541E+01  0.4731E+01  0.1571E+03
  17.550  0.4539E+01  0.4729E+01  0.1572E+03
  17.560  0.4536E+01  0.4727E+01  0.1573E+03
  17.570  0.4534E+01  0.4725E+01  0.1574E+03
  17.580  0.4531E+01  0.4722E+01  0.1575E+03
  17.590  0.4528E+01  0.4720E+01  0.1576E+03
  17.600  0.4526E+01  0.4718E+01  0.1577E+03
  17.610  0.4523E+01  0.4716E+01  0.1578E+03
  17.620  0.4520E+01  0.4713E+01  0.1578E+03
  17.630  0.4517E+01  0.4711E+01  0.1579E+03
  17.640  0.4514E+01  0.4708E+01  0.1580E+03
  17.650  0.4511E+01  0.4706E+01  0.1581E+03
  17.660  0.4508E+01  0.4703E+01  0.1582E+03
  17.670  0.4505E+01  0.4701E+01  0.1583E+03
  17.680  0.4502E+01  0.4698E+01  0.1584E+03
  17.690  0.4498E+01  0.4695E+01  0.1585E+03
  17.700  0.4495E+01  0.4693E+01  0.1586E+03
  17.710  0.4492E+01  0.4690E+01  0.1587E+03
  17.720  0.4488E+01  0.4687E+01  0.1588E+03
  17.730  0.4485E+01  0.4684E+01  0.1589E+03
  17.740  0.4481E+01  0.4681E+01  0.1590E+03
  17.750  0.4478E+01  0.4679E+01  0.1590E+03
  17.760  0.4474E+01  0.4676E+01  0.1591E+03
  17.770  0.4471E+01  0.4673E+01  0.1592E+03
  17.780  0.4467E+01  0.4670E+01  0.1593E+03
  17.790  0.4463E+01  0.4667E+01  0.1594E+03
  17.800  0.4459E+01  0.4664E+01  0.1595E+03
  17.810  0.4455E+01  0.4661E+01  0.1596E+03
  17.820  0.4452E+01  0.4658E+01  0.1597E+03
  17.830  0.4448E+01  0.4655E+01  0.1598E+03
  17.840  0.4443E+01  0.4651E+01  0.1599E+03
  17.850  0.4439E+01  0.4648E+01  0.1600E+03
  17.860  0.4435E+01  0.4645E+01  0.1600E+03
  17.870  0.4431E+01  0.4642E+01  0.1601E+03
  17.880  0.4427E+01  0.4639E+01  0.1602E+03
  17.890  0.4422E+01  0.4635E+01  0.1603E+03
  17.900  0.4418E+01  0.4632E+01  0.1604E+03
  17.910  0.4413E+01  0.4629E+01  0.1605E+03
  17.920  0.4409E+01  0.4625E+01  0.1606E+03
  17.930  0.4404E+01  0.4622E+01  0.1607E+03
  17.940  0.4400E+01  0.4619E+01  0.1608E+03
  17.950  0.4395E+01  0.4615E+01  0.1609E+03
  17.960  0.4390E+01  0.4612E+01  0.1609E+03
  17.970  0.4385E+01  0.4608E+01  0.1610E+03
  17.980  0.4381E+01  0.4605E+01  0.1611E+03
  17.990  0.4376E+01  0.4601E+01  0.1612E+03
  18.000  0.4371E+01  0.4597E+01  0.1613E+03
  18.010  0.4365E+01  0.4594E+01  0.1614E+03
  18.020  0.4360E+01  0.4590E+01  0.1615E+03
  18.030  0.4355E+01  0.4586E+01  0.1616E+03
  18.040  0.4350E+01  0.4583E+01  0.1617E+03
  18.050  0.4345E+01  0.4579E+01  0.1618E+03
  18.060  0.4339E+01  0.4575E+01  0.1618E+03
  18.070  0.4334E+01  0.4571E+01  0.1619E+03
  18.080  0.4328E+01  0.4568E+01  0.1620E+03
  18.090  0.4323E+01  0.4564E+01  0.1621E+03
  18.100  0.4317E+01  0.4560E+01  0.1622E+03
  18.110  0.4311E+01  0.4556E+01  0.1623E+03
  18.120  0.4305E+01  0.4552E+01  0.1624E+03
  18.130  0.4300E+01  0.4548E+01  0.1625E+03
  18.140  0.4294E+01  0.4544E+01  0.1626E+03
  18.150  0.4288E+01  0.4540E+01  0.1626E+03
  18.160  0.4282E+01  0.4536E+01  0.1627E+03
  18.170  0.4276E+01  0.4532E+01  0.1628E+03
  18.180  0.4269E+01  0.4527E+01  0.1629E+03
  18.190  0.4263E+01  0.4523E+01  0.1630E+03
  18.200  0.4257E+01  0.4519E+01  0.1631E+03
  18.210  0.4251E+01  0.4515E+01  0.1632E+03
  18.220  0.4244E+01  0.4510E+01  0.1633E+03
  18.230  0.4238E+01  0.4506E+01  0.1633E+03
  18.240  0.4231E+01  0.4501E+01  0.1634E+03
  18.250  0.4224E+01  0.4497E+01  0.1635E+03
  18.260  0.4218E+01  0.4492E+01  0.1636E+03
  18.270  0.4211E+01  0.4488E+01  0.1637E+03
  18.280  0.4204E+01  0.4483E+01  0.1638E+03
  18.290  0.4197E+01  0.4479E+01  0.1639E+03
  18.300  0.4190E+01  0.4474E+01  0.1640E+03
  18.310  0.4183E+01  0.4469E+01  0.1640E+03
  18.320  0.4176E+01  0.4464E+01  0.1641E+03
  18.330  0.4169E+01  0.4459E+01  0.1642E+03
  18.340  0.4161E+01  0.4454E+01  0.1643E+03
  18.350  0.4154E+01  0.4449E+01  0.1644E+03
  18.360  0.4147E+01  0.4444E+01  0.1645E+03
  18.370  0.4139E+01  0.4439E+01  0.1646E+03
  18.380  0.4132E+01  0.4434E+01  0.1646E+03
  18.390  0.4124E+01  0.4429E+01  0.1647E+03
  18.400  0.4116E+01  0.4424E+01  0.1648E+03
  18.410  0.4109E+01  0.4418E+01  0.1649E+03
  18.420  0.4101E+01  0.4413E+01  0.1650E+03
  18.430  0.4093E+01  0.4408E+01  0.1651E+03
  18.440  0.4085E+01  0.4402E+01  0.1652E+03
  18.450  0.4077E+01  0.4397E+01  0.1652E+03
  18.460  0.4069E+01  0.4391E+01  0.1653E+03
  18.470  0.4061E+01  0.4385E+01  0.1654E+03
  18.480  0.4052E+01  0.4380E+01  0.1655E+03
  18.490  0.4044E+01  0.4374E+01  0.1656E+03
  18.500  0.4036E+01  0.4368E+01  0.1657E+03
  18.510  0.4027E+01  0.4362E+01  0.1657E+03
  18.520  0.4019E+01  0.4356E+01  0.1658E+03
  18.530  0.4010E+01  0.4350E+01  0.1659E+03
  18.540  0.4002E+01  0.4344E+01  0.1660E+03
  18.550  0.3993E+01  0.4337E+01  0.1661E+03
  18.560  0.3984E+01  0.4331E+01  0.1662E+03
  18.570  0.3975E+01  0.4325E+01  0.1662E+03
  18.580  0.3966E+01  0.4318E+01  0.1663E+03
  18.590  0.3957E+01  0.4312E+01  0.1664E+03
  18.600  0.3948E+01  0.4305E+01  0.1665E+03
  18.610  0.3939E+01  0.4298E+01  0.1666E+03
  18.620  0.3930E+01  0.4292E+01  0.1667E+03
  18.630  0.3921E+01  0.4285E+01  0.1667E+03
  18.640  0.3912E+01  0.4278E+01  0.1668E+03
  18.650  0.3902E+01  0.4271E+01  0.1669E+03
  18.660  0.3893E+01  0.4264E+01  0.1670E+03
  18.670  0.3883E+01  0.4257E+01  0.1671E+03
  18.680  0.3874E+01  0.4249E+01  0.1671E+03
  18.690  0.3864E+01  0.4242E+01  0.1672E+03
  18.700  0.3854E+01  0.4235E+01  0.1673E+03
  18.710  0.3845E+01  0.4227E+01  0.1674E+03
  18.720  0.3835E+01  0.4219E+01  0.1675E+03
  18.730  0.3825E+01  0.4212E+01  0.1675E+03
  18.740  0.3815E+01  0.4204E+01  0.1676E+03
  18.750  0.3805E+01  0.4196E+01  0.1677E+03
  18.760  0.3795E+01  0.4188E+01  0.1678E+03
  18.770  0.3785E+01  0.4180E+01  0.1679E+03
  18.780  0.3775E+01  0.4172E+01  0.1679E+03
  18.790  0.3764E+01  0.4164E+01  0.1680E+03
  18.800  0.3754E+01  0.4156E+01  0.1681E+03
  18.810  0.3744E+01  0.4147E+01  0.1682E+03
  18.820  0.3733E+01  0.4139E+01  0.1683E+03
  18.830  0.3723E+01  0.4130E+01  0.1683E+03
  18.840  0.3712E+01  0.4121E+01  0.1684E+03
  18.850  0.3702E+01  0.4113E+01  0.1685E+03
  18.860  0.3691E+01  0.4104E+01  0.1686E+03
  18.870  0.3680E+01  0.4095E+01  0.1687E+03
  18.880  0.3669E+01  0.4086E+01  0.1687E+03
  18.890  0.3659E+01  0.4077E+01  0.1688E+03
  18.900  0.3648E+01  0.4068E+01  0.1689E+03
  18.910  0.3637E+01  0.4058E+01  0.1690E+03
  18.920  0.3626E+01  0.4049E+01  0.1690E+03
  18.930  0.3615E+01  0.4039E+01  0.1691E+03
  18.940  0.3604E+01  0.4030E+01  0.1692E+03
  18.950  0.3593E+01  0.4020E+01  0.1693E+03
  18.960  0.3581E+01  0.4010E+01  0.1693E+03
  18.970  0.3570E+01  0.4000E+01  0.1694E+03
  18.980  0.3559E+01  0.3990E+01  0.1695E+03
  18.990  0.3548E+01  0.3980E+01  0.1696E+03
  19.000  0.3536E+01  0.3970E+01  0.1696E+03
  19.010  0.3525E+01  0.3960E+01  0.1697E+03
  19.020  0.3513E+01  0.3950E+01  0.1698E+03
  19.030  0.3502E+01  0.3939E+01  0.1699E+03
  19.040  0.3490E+01  0.3929E+01  0.1699E+03
  19.050  0.3479E+01  0.3918E+01  0.1700E+03
  19.060  0.3467E+01  0.3907E+01  0.1701E+03
  19.070  0.3455E+01  0.3897E+01  0.1702E+03
  19.080  0.3443E+01  0.3886E+01  0.1702E+03
  19.090  0.3432E+01  0.3875E+01  0.1703E+03
  19.100  0.3420E+01  0.3864E+01  0.1704E+03
  19.110  0.3408E+01  0.3853E+01  0.1705E+03
  19.120  0.3396E+01  0.3841E+01  0.1705E+03
  19.130  0.3384E+01  0.3830E+01  0.1706E+03
  19.140  0.3372E+01  0.3819E+01  0.1707E+03
  19.150  0.3360E+01  0.3807E+01  0.1707E+03
  19.160  0.3348E+01  0.3795E+01  0.1708E+03
  19.170  0.3336E+01  0.3784E+01  0.1709E+03
  19.180  0.3323E+01  0.3772E+01  0.1710E+03
  19.190  0.3311E+01  0.3760E+01  0.1710E+03
  19.200  0.3299E+01  0.3748E+01  0.1711E+03
  19.210  0.3287E+01  0.3736E+01  0.1712E+03
  19.220  0.3274E+01  0.3724E+01  0.1712E+03
  19.230  0.3262E+01  0.3712E+01  0.1713E+03
  19.240  0.3250E+01  0.3700E+01  0.1714E+03
  19.250  0.3237E+01  0.3687E+01  0.1715E+03
  19.260  0.3225E+01  0.3675E+01  0.1715E+03
  19.270  0.3212E+01  0.3662E+01  0.1716E+03
  19.280  0.3200E+01  0.3650E+01  0.1717E+03
  19.290  0.3187E+01  0.3637E+01  0.1717E+03
  19.300  0.3174E+01  0.3624E+01  0.1718E+03
  19.310  0.3162E+01  0.3611E+01  0.1719E+03
  19.320  0.3149E+01  0.3599E+01  0.1719E+03
  19.330  0.3136E+01  0.3586E+01  0.1720E+03
  19.340  0.3124E+01  0.3572E+01  0.1721E+03
  19.350  0.3111E+01  0.3559E+01  0.1721E+03
  19.360  0.3098E+01  0.3546E+01  0.1722E+03
  19.370  0.3085E+01  0.3533E+01  0.1723E+03
  19.380  0.3072E+01  0.3520E+01  0.1723E+03
  19.390  0.3059E+01  0.3506E+01  0.1724E+03
  19.400  0.3047E+01  0.3493E+01  0.1725E+03
  19.410  0.3034E+01  0.3479E+01  0.1725E+03
  19.420  0.3021E+01  0.3465E+01  0.1726E+03
  19.430  0.3008E+01  0.3452E+01  0.1727E+03
  19.440  0.2995E+01  0.3438E+01  0.1727E+03
  19.450  0.2982E+01  0.3424E+01  0.1728E+03
  19.460  0.2968E+01  0.3410E+01  0.1728E+03
  19.470  0.2955E+01  0.3396E+01  0.1729E+03
  19.480  0.2942E+01  0.3382E+01  0.1730E+03
  19.490  0.2929E+01  0.3368E+01  0.1730E+03
  19.500  0.2916E+01  0.3354E+01  0.1731E+03
  19.510  0.2903E+01  0.3340E+01  0.1732E+03
  19.520  0.2890E+01  0.3326E+01  0.1732E+03
  19.530  0.2876E+01  0.3312E+01  0.1733E+03
  19.540  0.2863E+01  0.3297E+01  0.1733E+03
  19.550  0.2850E+01  0.3283E+01  0.1734E+03
  19.560  0.2836E+01  0.3268E+01  0.1735E+03
  19.570  0.2823E+01  0.3254E+01  0.1735E+03
  19.580  0.2810E+01  0.3239E+01  0.1736E+03
  19.590  0.2796E+01  0.3225E+01  0.1736E+03
  19.600  0.2783E+01  0.3210E+01  0.1737E+03
  19.610  0.2769E+01  0.3196E+01  0.1738E+03
  19.620  0.2756E+01  0.3181E+01  0.1738E+03
  19.630  0.2743E+01  0.3166E+01  0.1739E+03
  19.640  0.2729E+01  0.3151E+01  0.1739E+03
  19.650  0.2716E+01  0.3136E+01  0.1740E+03
  19.660  0.2702E+01  0.3122E+01  0.1741E+03
  19.670  0.2689E+01  0.3107E+01  0.1741E+03
  19.680  0.2675E+01  0.3092E+01  0.1742E+03
  19.690  0.2661E+01  0.3077E+01  0.1742E+03
  19.700  0.2648E+01  0.3062E+01  0.1743E+03
  19.710  0.2634E+01  0.3047E+01  0.1744E+03
  19.720  0.2621E+01  0.3032E+01  0.1744E+03
  19.730  0.2607E+01  0.3016E+01  0.1745E+03
  19.740  0.2593E+01  0.3001E+01  0.1745E+03
  19.750  0.2580E+01  0.2986E+01  0.1746E+03
  19.760  0.2566E+01  0.2971E+01  0.1746E+03
  19.770  0.2552E+01  0.2956E+01  0.1747E+03
  19.780  0.2539E+01  0.2940E+01  0.1747E+03
  19.790  0.2525E+01  0.2925E+01  0.1748E+03
  19.800  0.2511E+01  0.2910E+01  0.1748E+03
  19.810  0.2497E+01  0.2894E+01  0.1749E+03
  19.820  0.2484E+01  0.2879E+01  0.1750E+03
  19.830  0.2470E+01  0.2864E+01  0.1750E+03
  19.840  0.2456E+01  0.2848E+01  0.1751E+03
  19.850  0.2442E+01  0.2833E+01  0.1751E+03
  19.860  0.2428E+01  0.2817E+01  0.1752E+03
  19.870  0.2415E+01  0.2802E+01  0.1752E+03
  19.880  0.2401E+01  0.2786E+01  0.1753E+03
  19.890  0.2387E+01  0.2771E+01  0.1753E+03
  19.900  0.2373E+01  0.2755E+01  0.1754E+03
  19.910  0.2359E+01  0.2740E+01  0.1754E+03
  19.920  0.2345E+01  0.2724E+01  0.1755E+03
  19.930  0.2331E+01  0.2709E+01  0.1755E+03
  19.940  0.2317E+01  0.2693E+01  0.1756E+03
  19.950  0.2303E+01  0.2678E+01  0.1756E+03
  19.960  0.2289E+01  0.2662E+01  0.1757E+03
  19.970  0.2275E+01  0.2647E+01  0.1757E+03
  19.980  0.2262E+01  0.2631E+01  0.1758E+03
  19.990  0.2248E+01  0.2615E+01  0.1758E+03
  20.000  0.2234E+01  0.2600E+01  0.1759E+03
